2019-08-06	¿ÀÀü 9:45
Function	Cp-Q
Auto Range	Enabled
Manual Impedance Range	100	Ohms
Signal Frequency	1000.000000	Hz
Signal Type	Voltage
Signal Level	1.000000
Measurement Time	Medium
Averaging Factor	1.000000
Sampling Rate	5.000000	Hz
Cp	Q
1.408130E-11	171.360000
1.407830E-11	168.283000
1.407350E-11	157.521000
1.407240E-11	171.855000
1.408980E-11	150.478000
1.407430E-11	160.790000
1.407810E-11	172.361000
1.408450E-11	162.138000
1.408500E-11	153.690000
1.409060E-11	170.909000
1.407750E-11	164.249000
1.408330E-11	174.024000
1.409130E-11	162.811000
1.408320E-11	165.996000
1.408010E-11	152.440000
1.408240E-11	145.652000
1.408400E-11	164.617000
1.409050E-11	155.070000
1.408650E-11	153.436000
1.408520E-11	152.096000
1.408110E-11	155.747000
1.408480E-11	156.843000
1.408600E-11	143.269000
1.407910E-11	168.354000
1.408610E-11	166.654000
1.408760E-11	159.648000
1.408600E-11	154.727000
1.407690E-11	175.983000
1.407140E-11	167.168000
1.407580E-11	160.433000
1.407390E-11	158.064000
1.406070E-11	168.179000
1.405270E-11	174.407000
1.404990E-11	168.253000
1.406240E-11	168.748000
1.405800E-11	164.881000
1.405680E-11	159.594000
1.405800E-11	186.506000
1.405060E-11	170.468000
1.405860E-11	158.181000
1.405440E-11	160.272000
1.405530E-11	172.716000
1.405940E-11	188.085000
1.406640E-11	159.785000
1.406370E-11	145.045000
1.406350E-11	165.491000
1.404740E-11	183.079000
1.406640E-11	173.604000
1.405960E-11	151.318000
1.407620E-11	165.756000
1.407290E-11	160.336000
1.407770E-11	147.305000
1.409260E-11	160.087000
1.408800E-11	143.040000
1.409170E-11	151.640000
1.408690E-11	169.026000
1.406810E-11	150.202000
1.408430E-11	157.628000
1.407780E-11	140.372000
1.408250E-11	168.520000
1.408580E-11	155.002000
1.408840E-11	151.098000
1.408390E-11	148.170000
1.405790E-11	147.803000
1.405140E-11	167.852000
1.404810E-11	156.129000
1.404140E-11	149.860000
1.402880E-11	168.584000
1.402260E-11	160.298000
1.403650E-11	172.823000
1.403980E-11	161.965000
1.405270E-11	148.557000
1.406830E-11	156.115000
1.405450E-11	163.083000
1.404820E-11	156.160000
1.402270E-11	149.967000
1.402880E-11	146.242000
1.401380E-11	175.183000
1.402440E-11	158.551000
1.403020E-11	161.355000
1.410810E-11	129.800000
1.415330E-11	146.051000
1.416020E-11	147.571000
1.415090E-11	127.148000
1.415940E-11	133.536000
1.414010E-11	138.187000
1.413260E-11	136.813000
1.412270E-11	135.437000
1.412970E-11	133.751000
1.412070E-11	130.016000
1.412070E-11	130.167000
1.412370E-11	148.096000
1.411100E-11	134.674000
1.412510E-11	130.114000
1.411510E-11	132.307000
1.411970E-11	144.236000
1.415260E-11	140.902000
1.416500E-11	129.248000
1.416810E-11	122.450000
1.416630E-11	135.220000
1.416310E-11	145.493000
1.416730E-11	141.155000
1.416310E-11	129.797000
1.416340E-11	146.241000
1.415330E-11	141.895000
1.415110E-11	130.908000
1.416340E-11	127.932000
1.415670E-11	125.197000
1.416840E-11	128.649000
1.416970E-11	144.183000
1.415370E-11	135.041000
1.416960E-11	132.196000
1.415310E-11	122.070000
1.416550E-11	140.655000
1.416690E-11	134.758000
1.416490E-11	131.802000
1.416120E-11	125.369000
1.414340E-11	117.946000
1.415700E-11	126.452000
1.415350E-11	138.950000
1.415980E-11	148.297000
1.414760E-11	134.481000
1.415240E-11	128.225000
1.415250E-11	143.282000
1.412970E-11	135.390000
1.413410E-11	136.022000
1.413620E-11	140.779000
1.413090E-11	142.899000
1.412140E-11	137.131000
1.412090E-11	145.107000
1.431470E-11	112.999000
1.472420E-11	63.672300
1.472620E-11	62.916400
1.451770E-11	86.688100
1.455300E-11	83.593000
1.454130E-11	81.847300
1.454310E-11	89.252200
1.455630E-11	71.826300
1.468560E-11	66.255400
1.466730E-11	63.380600
1.466620E-11	60.140200
1.468930E-11	74.999300
1.466810E-11	71.552100
1.467100E-11	71.606000
1.468990E-11	72.590600
1.468290E-11	70.789300
1.469280E-11	72.239100
1.467830E-11	72.153400
1.467880E-11	71.102300
1.466970E-11	71.936400
1.464940E-11	71.640700
1.463650E-11	71.477400
1.462620E-11	70.871300
1.462040E-11	74.970600
1.460940E-11	76.694700
1.466140E-11	75.718800
1.468150E-11	72.157000
1.467980E-11	74.280200
1.467740E-11	76.522500
1.466440E-11	75.130100
1.464800E-11	77.625300
1.464640E-11	79.683300
1.464800E-11	77.878300
1.463180E-11	79.065800
1.462740E-11	75.805200
1.463200E-11	79.646300
1.463280E-11	81.356100
1.463280E-11	77.221500
1.463970E-11	80.437400
1.388440E-11	202.499000
1.460420E-11	75.052600
1.460990E-11	80.994800
1.463250E-11	73.089200
1.472510E-11	68.420100
1.473050E-11	68.514200
1.474300E-11	66.773900
1.479650E-11	63.005600
1.483980E-11	60.479700
1.483780E-11	61.220100
1.484160E-11	61.205500
1.485180E-11	59.872900
1.483710E-11	59.616500
1.484650E-11	58.270000
1.484910E-11	60.292100
1.484390E-11	59.803400
1.484930E-11	57.573700
1.486960E-11	56.425200
1.486060E-11	54.397600
1.486960E-11	53.839100
1.488440E-11	55.028100
1.488690E-11	55.039900
1.487680E-11	57.698400
1.489060E-11	57.294800
1.489480E-11	56.623800
1.488720E-11	55.580200
1.489640E-11	56.968900
1.489000E-11	58.479800
1.489650E-11	56.857300
1.490290E-11	55.866100
1.489830E-11	57.291100
1.490440E-11	56.001600
1.489660E-11	58.308000
1.489900E-11	55.669100
1.490840E-11	55.875600
1.490640E-11	55.538000
1.490940E-11	56.560300
1.489720E-11	56.705400
1.490570E-11	54.593700
1.490120E-11	55.006800
1.490370E-11	58.126900
1.490840E-11	56.177700
1.490940E-11	54.586300
1.489730E-11	55.108000
1.491420E-11	57.660600
1.490860E-11	57.022900
1.490690E-11	54.376900
1.490620E-11	55.336800
1.491580E-11	55.703400
1.490990E-11	56.647200
1.491430E-11	56.274000
1.491110E-11	54.471300
1.490560E-11	55.252800
1.490700E-11	54.490200
1.491970E-11	55.555100
1.491550E-11	57.903400
1.490500E-11	53.934300
1.490520E-11	56.222700
1.491470E-11	56.505100
1.491890E-11	54.718900
1.490560E-11	54.634500
1.490350E-11	55.186400
1.491000E-11	55.073100
1.491680E-11	55.701500
1.491280E-11	54.595300
1.490460E-11	56.966100
1.491180E-11	55.038200
1.491610E-11	56.550300
1.490900E-11	57.736600
1.490340E-11	54.280800
1.490230E-11	56.680000
1.489780E-11	54.907400
1.490690E-11	54.403000
1.491360E-11	57.113300
1.490230E-11	55.093000
1.491080E-11	57.424100
1.491010E-11	55.119700
1.491760E-11	56.199700
1.491130E-11	56.555600
1.491060E-11	57.524800
1.490960E-11	57.905100
1.492230E-11	57.196900
1.492830E-11	56.105700
1.491380E-11	57.055800
1.491770E-11	55.132500
1.493110E-11	56.151800
1.493210E-11	57.162700
1.491970E-11	54.807500
1.491600E-11	57.208400
1.491680E-11	56.638300
1.491990E-11	54.796700
1.492670E-11	57.468600
1.491940E-11	56.287100
1.492000E-11	58.165300
1.492680E-11	54.028300
1.492900E-11	55.467600
1.492040E-11	55.591500
1.491840E-11	56.361900
1.491700E-11	53.935800
1.493130E-11	53.591600
1.492450E-11	55.651500
1.492020E-11	56.569500
1.492870E-11	56.299100
1.493170E-11	55.827400
1.493390E-11	56.393100
1.492370E-11	55.407300
1.492680E-11	57.435200
1.492710E-11	57.238500
1.492210E-11	55.077100
1.493200E-11	56.231200
1.492620E-11	57.061100
1.493070E-11	57.184200
1.492950E-11	54.140000
1.492380E-11	56.630200
1.492480E-11	56.460700
1.492920E-11	57.339600
1.492160E-11	54.020800
1.492500E-11	54.106800
1.491860E-11	55.574500
1.493060E-11	56.372000
1.492490E-11	53.977300
1.493450E-11	53.728700
1.493450E-11	56.707800
1.491890E-11	55.997200
1.492980E-11	56.469300
1.492290E-11	56.829400
1.493210E-11	56.425600
1.493810E-11	55.078900
1.492020E-11	57.472400
1.492920E-11	56.662300
1.492580E-11	54.571000
1.491910E-11	54.862600
1.492620E-11	56.412900
1.492320E-11	57.111600
1.492430E-11	56.627000
1.492070E-11	54.242400
1.493370E-11	54.924500
1.492650E-11	57.211200
1.492120E-11	53.289000
1.493050E-11	54.620000
1.493580E-11	55.289500
1.492370E-11	56.398400
1.492410E-11	57.214400
1.491880E-11	56.138100
1.491630E-11	54.108700
1.493140E-11	55.322800
1.491910E-11	56.105900
1.492600E-11	57.194200
1.491790E-11	53.300200
1.492040E-11	55.606500
1.491860E-11	56.292300
1.492610E-11	53.268500
1.492360E-11	55.249500
1.491660E-11	53.716600
1.492170E-11	56.209000
1.492280E-11	56.199800
1.492100E-11	54.798800
1.492170E-11	54.301500
1.492930E-11	55.089800
1.492530E-11	56.824900
1.492720E-11	57.258000
1.492450E-11	55.634300
1.491640E-11	55.482600
1.492650E-11	54.362000
1.492860E-11	55.381400
1.493110E-11	55.098600
1.492020E-11	53.661600
1.493010E-11	55.078600
1.492040E-11	57.184000
1.493080E-11	54.801000
1.491980E-11	56.869900
1.492710E-11	53.302800
1.492110E-11	56.877700
1.492330E-11	55.607500
1.491830E-11	56.493900
1.491280E-11	55.049200
1.491340E-11	54.559700
1.492490E-11	55.893100
1.491890E-11	54.721700
1.492140E-11	54.398600
1.491960E-11	56.794900
1.491050E-11	55.074400
1.492260E-11	53.596400
1.491040E-11	54.169200
1.490900E-11	56.170600
1.492160E-11	56.391800
1.491540E-11	53.749900
1.490780E-11	55.031000
1.491700E-11	56.680400
1.491570E-11	55.501300
1.492070E-11	54.030900
1.490920E-11	53.353500
1.491910E-11	56.063000
1.490770E-11	55.963900
1.490360E-11	56.481600
1.490930E-11	53.170300
1.490010E-11	54.408700
1.490650E-11	52.518800
1.491510E-11	54.213600
1.491160E-11	56.963600
1.490600E-11	53.377300
1.490420E-11	56.551400
1.491140E-11	54.566800
1.490690E-11	53.660900
1.489960E-11	54.278600
1.489950E-11	55.815700
1.490350E-11	54.734900
1.490640E-11	53.615500
1.489970E-11	54.264200
1.489910E-11	56.495600
1.490260E-11	52.740500
1.491190E-11	53.918300
1.489890E-11	54.852400
1.489540E-11	54.524300
1.490950E-11	55.973600
1.490130E-11	56.917000
1.489660E-11	54.802200
1.490790E-11	53.031300
1.490210E-11	56.679900
1.491400E-11	54.512600
1.490210E-11	54.478700
1.490290E-11	56.863000
1.491110E-11	55.994000
1.491380E-11	54.791000
1.491610E-11	54.520000
1.490720E-11	55.393600
1.491170E-11	55.202200
1.491790E-11	54.555500
1.491070E-11	56.785200
1.489840E-11	56.149500
1.490100E-11	55.261900
1.491350E-11	54.480000
1.491320E-11	52.912900
1.491660E-11	53.858900
1.490460E-11	53.936500
1.490760E-11	54.778500
1.491150E-11	56.197200
1.490870E-11	53.295300
1.492230E-11	55.507900
1.492390E-11	54.519400
1.491070E-11	52.533900
1.491140E-11	53.785300
1.491410E-11	53.229000
1.492150E-11	53.453800
1.491140E-11	53.939100
1.490590E-11	54.167000
1.491610E-11	53.662300
1.491670E-11	54.204800
1.491190E-11	55.993600
1.490640E-11	54.240900
1.490500E-11	55.392100
1.490830E-11	54.575900
1.491260E-11	53.131000
1.491730E-11	56.075500
1.491040E-11	55.074400
1.490810E-11	56.762900
1.491800E-11	51.899800
1.491430E-11	52.876000
1.490940E-11	56.196400
1.491220E-11	54.661500
1.490990E-11	55.927600
1.490230E-11	53.667300
1.491100E-11	54.895800
1.491010E-11	56.506300
1.491480E-11	56.301200
1.491420E-11	56.393200
1.490520E-11	55.785400
1.491880E-11	56.193500
1.492010E-11	55.652600
1.492520E-11	54.991100
1.491970E-11	55.840700
1.491460E-11	53.563100
1.492460E-11	54.415300
1.492270E-11	54.907100
1.491490E-11	56.177000
1.492910E-11	55.222300
1.492150E-11	54.520200
1.491670E-11	52.772000
1.491880E-11	55.710600
1.491670E-11	56.367100
1.491120E-11	54.001200
1.491180E-11	54.445500
1.491860E-11	54.836200
1.491080E-11	56.897400
1.490520E-11	56.278900
1.490600E-11	56.273200
1.490190E-11	55.170800
1.489380E-11	54.251100
1.490960E-11	53.246900
1.490880E-11	55.571400
1.490940E-11	55.279200
1.490050E-11	56.219900
1.485280E-11	59.929700
1.498570E-11	52.015800
1.499980E-11	42.769900
1.501860E-11	42.983500
1.503270E-11	42.709300
1.502950E-11	42.902700
1.502250E-11	41.978800
1.502680E-11	41.612300
1.503500E-11	44.148400
1.502220E-11	42.867300
1.503010E-11	41.184900
1.502610E-11	41.912000
1.503840E-11	42.138800
1.503120E-11	42.788300
1.502750E-11	41.584600
1.502100E-11	41.243300
1.502600E-11	42.227600
1.503360E-11	41.396200
1.502990E-11	41.601400
1.503560E-11	42.494600
1.503640E-11	41.245500
1.504630E-11	41.222500
1.505070E-11	42.673900
1.503160E-11	43.276300
1.504370E-11	42.569600
1.503850E-11	42.901400
1.503130E-11	42.397800
1.504440E-11	40.911200
1.503510E-11	41.889700
1.504630E-11	41.132500
1.503950E-11	42.308200
1.504830E-11	43.231700
1.505040E-11	41.901400
1.505010E-11	41.256100
1.504790E-11	41.950000
1.504560E-11	42.459400
1.505290E-11	41.933400
1.504160E-11	40.909400
1.505210E-11	42.525700
1.504270E-11	41.411800
1.504590E-11	41.271500
1.503830E-11	40.787200
1.502750E-11	41.661200
1.503230E-11	40.693900
1.504410E-11	40.944200
1.503880E-11	42.986900
1.502700E-11	42.161900
1.503080E-11	42.510000
1.503190E-11	40.829900
1.502460E-11	41.558100
1.502080E-11	41.930900
1.504850E-11	45.583100
1.506790E-11	39.852700
1.506620E-11	39.447100
1.507590E-11	38.389100
1.508950E-11	38.381800
1.507080E-11	37.688200
1.508070E-11	37.116800
1.508920E-11	36.377900
1.507660E-11	36.854700
1.509450E-11	36.992500
1.509790E-11	37.020000
1.509300E-11	37.959400
1.508960E-11	35.862200
1.509640E-11	36.646400
1.509060E-11	36.464600
1.509990E-11	37.597800
1.507700E-11	37.694700
1.509200E-11	36.295100
1.508550E-11	36.884000
1.509250E-11	36.486400
1.509850E-11	36.822500
1.508890E-11	36.859400
1.508490E-11	36.633300
1.509640E-11	36.762300
1.509720E-11	37.757700
1.509680E-11	38.155500
1.508650E-11	37.957700
1.508480E-11	37.879200
1.508720E-11	37.681200
1.509110E-11	36.827500
1.510610E-11	37.442700
1.509320E-11	37.849300
1.509650E-11	38.239200
1.508640E-11	36.607700
1.508950E-11	37.351300
1.509510E-11	38.362300
1.509860E-11	37.393000
1.509340E-11	37.947500
1.508660E-11	37.510700
1.509960E-11	37.285900
1.510010E-11	37.393500
1.508980E-11	37.787600
1.508470E-11	37.003000
1.508830E-11	36.691600
1.509850E-11	37.074200
1.509780E-11	36.628100
1.509610E-11	36.976200
1.509710E-11	36.699100
1.508490E-11	36.988900
1.509050E-11	36.189300
1.487280E-11	27.912200
1.513180E-11	37.209600
1.513470E-11	34.160600
1.514720E-11	33.021100
1.513570E-11	33.752900
1.514180E-11	33.555000
1.515700E-11	33.315200
1.514370E-11	33.520800
1.513920E-11	33.888500
1.514690E-11	33.433800
1.515510E-11	33.682600
1.515670E-11	33.288000
1.516040E-11	33.867900
1.515370E-11	34.255700
1.515760E-11	34.100400
1.515030E-11	34.264800
1.515550E-11	33.379900
1.515550E-11	33.088600
1.516390E-11	33.800000
1.514960E-11	33.802000
1.515850E-11	32.961400
1.515920E-11	34.140500
1.515670E-11	32.642100
1.516110E-11	34.267200
1.515860E-11	34.388300
1.516500E-11	33.119600
1.515820E-11	33.379900
1.516600E-11	33.399900
1.516280E-11	34.061200
1.515610E-11	34.158600
1.514900E-11	32.906600
1.515300E-11	33.392000
1.514950E-11	33.382300
1.514990E-11	32.559400
1.516240E-11	33.643700
1.516440E-11	33.407800
1.515420E-11	33.987000
1.515340E-11	32.827600
1.514170E-11	33.580600
1.514950E-11	33.798600
1.516370E-11	34.252200
1.515230E-11	34.017700
1.514560E-11	33.362300
1.516230E-11	34.073600
1.515990E-11	33.435200
1.515380E-11	34.374100
1.515340E-11	33.417900
1.514680E-11	33.233200
1.516730E-11	33.482700
1.431860E-11	13.002700
1.518980E-11	31.962800
1.520520E-11	32.174100
1.518900E-11	31.972100
1.518910E-11	31.935600
1.518810E-11	31.385200
1.517890E-11	30.854800
1.519440E-11	30.931300
1.519280E-11	31.765800
1.518420E-11	31.426600
1.518960E-11	31.305900
1.519870E-11	31.025800
1.518560E-11	31.453600
1.519710E-11	31.810100
1.519270E-11	31.108600
1.520220E-11	31.052900
1.521180E-11	30.910300
1.520550E-11	32.129300
1.522040E-11	31.258900
1.521740E-11	31.628400
1.520540E-11	31.749700
1.520830E-11	31.180700
1.520910E-11	31.372500
1.521070E-11	31.096100
1.521600E-11	31.852400
1.522800E-11	31.218200
1.521610E-11	30.908000
1.521910E-11	31.719100
1.522340E-11	31.123400
1.522770E-11	31.155100
1.521780E-11	30.729400
1.521250E-11	31.567600
1.522060E-11	30.584900
1.522950E-11	30.740300
1.523130E-11	30.899800
1.521030E-11	31.542300
1.522500E-11	31.668800
1.521180E-11	32.157400
1.520650E-11	31.100500
1.521840E-11	30.758400
1.522300E-11	31.651000
1.522080E-11	30.726500
1.521350E-11	31.335700
1.522200E-11	31.728600
1.522190E-11	30.628600
1.522540E-11	30.442700
1.521960E-11	30.858300
1.521800E-11	31.057600
1.522610E-11	30.671000
1.520540E-11	30.718900
1.522750E-11	31.608100
1.522410E-11	31.877400
1.523100E-11	31.583400
1.522070E-11	30.368900
1.523100E-11	31.071600
1.522610E-11	30.375000
1.523170E-11	29.334200
1.524780E-11	29.824800
1.523690E-11	30.692300
1.525510E-11	29.881800
1.524210E-11	30.084400
1.523770E-11	30.695700
1.525750E-11	30.006300
1.525290E-11	30.330600
1.525330E-11	30.442000
1.524790E-11	30.070700
1.524380E-11	29.891100
1.524620E-11	29.469400
1.526220E-11	30.074500
1.525660E-11	30.649400
1.524550E-11	30.443600
1.524670E-11	29.544100
1.524320E-11	30.300300
1.523830E-11	30.086300
1.524150E-11	29.347800
1.526150E-11	29.734200
1.523690E-11	30.397200
1.526000E-11	29.953500
1.524440E-11	29.882400
1.524160E-11	30.394900
1.525950E-11	30.108500
1.525740E-11	29.619400
1.525150E-11	30.048300
1.525190E-11	30.092000
1.525760E-11	29.864200
1.524530E-11	29.143800
1.525820E-11	29.816800
1.524980E-11	30.306200
1.524020E-11	30.109400
1.524100E-11	29.203800
1.523920E-11	30.222800
1.523620E-11	29.720600
1.524180E-11	29.221500
1.525760E-11	29.580100
1.524150E-11	30.310100
1.525720E-11	29.915700
1.524030E-11	29.602100
1.524780E-11	29.580200
1.525310E-11	29.869300
1.525240E-11	29.581200
1.525180E-11	30.775500
1.526150E-11	29.379900
1.527910E-11	28.249100
1.526360E-11	27.945400
1.527500E-11	28.490400
1.527460E-11	28.924800
1.528880E-11	28.887900
1.526540E-11	27.867300
1.526420E-11	28.818300
1.526120E-11	28.453300
1.526900E-11	27.712000
1.528210E-11	28.264200
1.526640E-11	29.005800
1.528080E-11	28.266700
1.526720E-11	28.399100
1.527320E-11	28.853500
1.528180E-11	28.307300
1.528270E-11	28.280100
1.527980E-11	28.361300
1.526420E-11	28.149100
1.528370E-11	28.348500
1.526690E-11	27.874300
1.528140E-11	28.215500
1.528460E-11	28.734800
1.528310E-11	28.745100
1.526450E-11	27.789300
1.526840E-11	28.921500
1.526400E-11	28.842100
1.526520E-11	27.960500
1.528040E-11	28.021300
1.527050E-11	29.118500
1.528400E-11	28.201400
1.527080E-11	28.426500
1.527820E-11	29.053600
1.528150E-11	28.107500
1.527610E-11	27.939700
1.527800E-11	28.237700
1.527190E-11	28.299800
1.527180E-11	27.853200
1.526020E-11	27.879000
1.527720E-11	28.011600
1.527670E-11	28.604500
1.527020E-11	28.833200
1.525600E-11	28.233400
1.526500E-11	28.716400
1.525860E-11	28.820400
1.525280E-11	28.225900
1.526630E-11	27.754700
1.527080E-11	28.821500
1.527380E-11	28.078100
1.526370E-11	29.229600
1.528650E-11	27.805000
1.530580E-11	27.307800
1.530210E-11	27.291900
1.528900E-11	27.303400
1.528740E-11	27.539700
1.528570E-11	27.716200
1.528580E-11	27.383100
1.529700E-11	27.134200
1.530110E-11	27.642900
1.529550E-11	27.760000
1.528660E-11	27.320800
1.530000E-11	27.810400
1.529400E-11	27.981700
1.529160E-11	27.511700
1.530300E-11	27.011200
1.530900E-11	27.787200
1.530810E-11	27.177900
1.529970E-11	27.538200
1.530400E-11	27.697300
1.531050E-11	27.021300
1.530560E-11	26.810300
1.531310E-11	27.301200
1.531200E-11	27.454500
1.531640E-11	26.725600
1.530420E-11	27.079100
1.532720E-11	26.836500
1.531200E-11	27.071100
1.531730E-11	26.947500
1.530540E-11	27.037300
1.531760E-11	27.556500
1.531340E-11	27.512700
1.531240E-11	26.939600
1.532380E-11	26.540500
1.532830E-11	27.564100
1.533100E-11	26.982500
1.531850E-11	26.953500
1.531470E-11	27.321500
1.532930E-11	26.887800
1.533220E-11	27.025600
1.532980E-11	26.970900
1.532400E-11	27.007500
1.532230E-11	26.792200
1.532200E-11	26.418600
1.533190E-11	27.037200
1.532240E-11	27.199300
1.531920E-11	27.197300
1.532240E-11	26.362100
1.532080E-11	26.959800
1.531500E-11	26.469100
1.534400E-11	26.557600
1.536550E-11	26.770300
1.535330E-11	26.417300
1.536080E-11	26.506600
1.534390E-11	26.085800
1.533960E-11	25.951300
1.534880E-11	26.599700
1.535290E-11	26.606300
1.534380E-11	26.362500
1.534420E-11	26.128100
1.534530E-11	26.475600
1.535110E-11	25.492800
1.534670E-11	26.436100
1.534340E-11	25.969600
1.535300E-11	26.296200
1.535880E-11	26.371100
1.535430E-11	25.728100
1.536480E-11	26.096600
1.535280E-11	26.468200
1.533760E-11	26.138600
1.535030E-11	26.288300
1.534430E-11	25.649800
1.535470E-11	26.263100
1.536270E-11	25.902400
1.535310E-11	25.766500
1.535850E-11	26.431600
1.535120E-11	25.973700
1.535420E-11	25.880600
1.535410E-11	25.977100
1.534330E-11	25.850700
1.535690E-11	25.691600
1.535800E-11	26.225700
1.534900E-11	26.665900
1.534470E-11	26.086900
1.534380E-11	26.487900
1.534730E-11	26.083400
1.535410E-11	25.727200
1.536570E-11	26.435400
1.534830E-11	26.161600
1.535580E-11	26.400300
1.535670E-11	25.614900
1.535300E-11	26.023100
1.535030E-11	26.210500
1.536280E-11	25.611700
1.535390E-11	26.262000
1.534790E-11	25.666400
1.535860E-11	26.132300
1.535700E-11	26.507700
1.535400E-11	25.912500
1.535090E-11	25.888000
1.536620E-11	25.981700
1.538650E-11	25.124400
1.538920E-11	25.664500
1.537590E-11	25.711600
1.537720E-11	25.546500
1.538270E-11	25.216800
1.538550E-11	25.644900
1.539010E-11	25.385600
1.537310E-11	25.837400
1.538030E-11	25.742200
1.538690E-11	25.655500
1.539040E-11	24.414300
1.539630E-11	25.618000
1.539180E-11	26.037900
1.538720E-11	25.261100
1.538870E-11	25.104500
1.539410E-11	25.381800
1.539220E-11	25.220800
1.540000E-11	25.418800
1.538650E-11	25.195600
1.538610E-11	25.103100
1.538080E-11	25.463700
1.538630E-11	25.125600
1.538940E-11	25.462400
1.538410E-11	25.405500
1.538420E-11	25.630100
1.539770E-11	25.032400
1.538400E-11	25.395300
1.538260E-11	25.486700
1.538810E-11	25.826500
1.537960E-11	25.702800
1.537970E-11	25.175900
1.538490E-11	25.753700
1.538430E-11	25.745300
1.538330E-11	25.605700
1.537560E-11	25.532300
1.537910E-11	25.268800
1.539130E-11	25.649900
1.538880E-11	25.402600
1.539520E-11	25.406900
1.538750E-11	24.961000
1.538150E-11	25.261400
1.539640E-11	25.108100
1.538650E-11	25.183700
1.539300E-11	25.614500
1.539810E-11	25.426700
1.539200E-11	25.211700
1.538670E-11	25.065400
1.540030E-11	25.087800
1.539350E-11	25.187000
1.539510E-11	25.193800
1.542050E-11	24.698100
1.542860E-11	24.223800
1.541890E-11	24.778600
1.542690E-11	24.875700
1.542530E-11	25.135600
1.541920E-11	25.091900
1.542030E-11	25.249400
1.540750E-11	24.745800
1.541990E-11	24.693700
1.542030E-11	25.296700
1.540020E-11	25.182900
1.542030E-11	24.956400
1.542330E-11	25.147900
1.542520E-11	24.984500
1.543200E-11	24.985400
1.543040E-11	24.823500
1.542880E-11	25.106500
1.543670E-11	24.822600
1.542900E-11	24.710800
1.543470E-11	25.124100
1.542670E-11	25.247500
1.541850E-11	25.042800
1.543110E-11	24.306600
1.542470E-11	24.763700
1.542340E-11	24.622000
1.543810E-11	24.760700
1.543290E-11	25.388000
1.541770E-11	24.801100
1.542700E-11	25.092300
1.542370E-11	24.632400
1.541290E-11	24.534900
1.542160E-11	25.031600
1.542510E-11	25.306500
1.541900E-11	25.128800
1.541480E-11	24.830500
1.541230E-11	25.246900
1.542670E-11	25.061400
1.541340E-11	25.026800
1.541680E-11	24.474500
1.542050E-11	24.486000
1.542770E-11	25.096000
1.542410E-11	24.625500
1.543250E-11	24.959400
1.541600E-11	25.434900
1.540480E-11	24.714300
1.542180E-11	24.577600
1.540950E-11	24.655800
1.542480E-11	25.027000
1.542570E-11	24.946400
1.541380E-11	25.165400
1.542220E-11	24.616400
1.543650E-11	24.354800
1.543910E-11	24.315900
1.543450E-11	23.739600
1.541430E-11	24.644600
1.542920E-11	24.317700
1.543460E-11	24.527400
1.544200E-11	24.621400
1.542290E-11	24.717600
1.543100E-11	24.974700
1.541760E-11	24.935800
1.541930E-11	24.429100
1.543970E-11	24.372700
1.543500E-11	24.888400
1.543530E-11	24.803500
1.542510E-11	24.913800
1.543210E-11	25.096600
1.544160E-11	25.019000
1.544880E-11	24.761300
1.544870E-11	24.615900
1.544150E-11	24.841500
1.544660E-11	24.610100
1.544600E-11	24.149300
1.544520E-11	24.934100
1.544270E-11	24.326600
1.545130E-11	24.480900
1.544340E-11	24.309300
1.543230E-11	24.111800
1.545230E-11	24.536700
1.544940E-11	24.365500
1.543710E-11	24.877200
1.543850E-11	24.123800
1.543380E-11	24.481800
1.545260E-11	24.393500
1.544560E-11	24.214900
1.543380E-11	24.175700
1.545400E-11	24.496400
1.543060E-11	24.304300
1.544160E-11	24.233600
1.544700E-11	24.844300
1.543000E-11	24.568800
1.543500E-11	24.243200
1.544080E-11	24.362700
1.544110E-11	24.668900
1.543270E-11	24.551400
1.543090E-11	24.723100
1.543140E-11	24.691700
1.543290E-11	24.353200
1.544300E-11	24.393000
1.543890E-11	24.214200
1.544130E-11	25.402900
1.546280E-11	23.532600
1.554870E-11	29.657800
1.544510E-11	24.578400
1.546110E-11	24.163400
1.544900E-11	24.573400
1.544000E-11	24.183600
1.545470E-11	24.362800
1.545910E-11	24.237800
1.545250E-11	24.443100
1.545210E-11	24.108100
1.544780E-11	24.107000
1.546320E-11	24.083200
1.545760E-11	24.106900
1.546150E-11	24.139800
1.546660E-11	24.473700
1.544980E-11	24.115200
1.546770E-11	23.965500
1.545740E-11	23.883500
1.545430E-11	24.444300
1.546440E-11	24.130300
1.546250E-11	24.043400
1.545440E-11	23.922400
1.546810E-11	23.881500
1.546510E-11	24.394400
1.546110E-11	23.834400
1.545480E-11	23.988000
1.546880E-11	24.090500
1.545730E-11	23.759200
1.546770E-11	23.968300
1.545320E-11	23.696000
1.545200E-11	24.101200
1.545020E-11	24.064400
1.546500E-11	23.703100
1.546390E-11	24.347100
1.544580E-11	24.148700
1.545410E-11	24.368700
1.545840E-11	23.933900
1.544480E-11	23.906200
1.544810E-11	24.274400
1.545250E-11	24.490700
1.545170E-11	24.148200
1.545060E-11	23.912000
1.544670E-11	24.170300
1.545570E-11	24.403800
1.544330E-11	23.921300
1.545280E-11	23.811900
1.546530E-11	23.846000
1.501090E-11	45.994100
1.547730E-11	24.149600
1.549770E-11	23.607300
1.545850E-11	24.114700
1.546230E-11	23.480900
1.547160E-11	24.311600
1.547770E-11	23.551600
1.547130E-11	23.979300
1.547520E-11	24.295600
1.548160E-11	23.828700
1.548520E-11	23.908300
1.547490E-11	23.806600
1.547890E-11	24.151800
1.548250E-11	24.008600
1.547580E-11	23.461500
1.548490E-11	23.938700
1.548000E-11	24.204400
1.546890E-11	23.978000
1.548540E-11	23.497900
1.546500E-11	23.516200
1.547550E-11	23.251700
1.547720E-11	23.864600
1.547940E-11	24.040000
1.547070E-11	23.543600
1.547400E-11	23.888000
1.548410E-11	23.562500
1.547570E-11	23.487100
1.547270E-11	23.752500
1.548050E-11	23.980700
1.547950E-11	23.775200
1.547940E-11	23.544300
1.548100E-11	23.814500
1.548610E-11	24.142100
1.547620E-11	23.570600
1.548350E-11	23.369500
1.548780E-11	23.214700
1.548550E-11	23.365800
1.549880E-11	23.779100
1.549420E-11	23.905800
1.548790E-11	23.851500
1.548260E-11	23.211000
1.547790E-11	23.562200
1.549180E-11	23.313700
