2019-08-06	¿ÀÀü 9:36
Function	Cp-Q
Auto Range	Enabled
Manual Impedance Range	100	Ohms
Signal Frequency	1000.000000	Hz
Signal Type	Voltage
Signal Level	1.000000
Measurement Time	Medium
Averaging Factor	1.000000
Sampling Rate	5.000000	Hz
Cp	Q
1.365240E-11	1514.630000
1.364400E-11	2801.660000
1.365460E-11	819.710000
1.364820E-11	703.275000
1.364260E-11	629.123000
1.364130E-11	928.300000
1.364920E-11	603.510000
1.364990E-11	1026.190000
1.364230E-11	951.802000
1.364730E-11	2605.280000
1.364480E-11	605.467000
1.364530E-11	991.968000
1.364940E-11	1607.450000
1.365500E-11	763.365000
1.364400E-11	1968.960000
1.364600E-11	2655.170000
1.365040E-11	1046.110000
1.365480E-11	672.884000
1.365410E-11	834.361000
1.365410E-11	1162.850000
1.364530E-11	895.621000
1.364630E-11	3059.820000
1.364190E-11	747.605000
1.364810E-11	1110.520000
1.364190E-11	680.101000
1.365700E-11	911.191000
1.364940E-11	1027.200000
1.365550E-11	1673.450000
1.364340E-11	597.163000
1.365050E-11	1448.630000
1.365150E-11	2125.880000
1.365370E-11	856.060000
1.364790E-11	1466.060000
1.364970E-11	4068.040000
1.365500E-11	911.305000
1.365110E-11	549.370000
1.365550E-11	863.795000
1.364980E-11	1456.900000
1.364590E-11	1585.040000
1.364350E-11	1119.870000
1.364180E-11	1443.540000
1.364920E-11	1523.060000
1.364420E-11	998.344000
1.365550E-11	771.783000
1.365090E-11	596.290000
1.365820E-11	939.600000
1.363950E-11	1007.160000
1.365240E-11	1130.030000
1.365560E-11	1135.200000
1.364070E-11	1100.290000
1.365790E-11	1109.910000
1.365780E-11	1353.530000
1.365440E-11	886.115000
1.364630E-11	592.373000
1.365040E-11	906.040000
1.365130E-11	694.668000
1.364870E-11	1310.930000
1.364760E-11	1188.580000
1.364840E-11	2187.000000
1.365130E-11	1319.920000
1.364450E-11	922.659000
1.364990E-11	748.620000
1.365040E-11	1023.980000
1.365600E-11	606.194000
1.364420E-11	2197.910000
1.365400E-11	758.932000
1.365640E-11	609.679000
1.364570E-11	775.101000
1.365830E-11	636.439000
1.365750E-11	783.436000
1.364930E-11	808.340000
1.364070E-11	1002.080000
1.364770E-11	733.132000
1.364220E-11	1759.310000
1.363760E-11	1123.020000
1.364590E-11	1019.300000
1.365400E-11	2009.910000
1.365640E-11	1053.400000
1.364980E-11	1270.920000
1.364600E-11	670.500000
1.365100E-11	759.009000
1.364650E-11	640.325000
1.365460E-11	2303.660000
1.365350E-11	855.867000
1.364660E-11	601.075000
1.364890E-11	613.207000
1.364380E-11	652.532000
1.365140E-11	534.459000
1.365380E-11	3707.210000
1.364330E-11	1600.420000
1.364680E-11	824.482000
1.364500E-11	753.850000
1.364030E-11	1642.600000
1.365010E-11	575.676000
1.365710E-11	756.331000
1.365760E-11	797.418000
1.365430E-11	1342.960000
1.365260E-11	740.964000
1.365860E-11	601.634000
1.365430E-11	566.727000
1.366310E-11	913.816000
1.365980E-11	808.013000
1.365010E-11	618.112000
1.366570E-11	1035.390000
1.364760E-11	601.114000
1.365050E-11	540.846000
1.364860E-11	748.056000
1.364940E-11	1199.980000
1.364710E-11	620.874000
1.364610E-11	600.953000
1.365320E-11	687.861000
1.365410E-11	1624.830000
1.365990E-11	853.980000
1.365520E-11	614.927000
1.365390E-11	1605.100000
1.364040E-11	980.679000
1.365550E-11	780.474000
1.364010E-11	632.933000
1.365740E-11	940.033000
1.364550E-11	2749.570000
1.364330E-11	658.694000
1.364540E-11	1078.580000
1.364100E-11	894.086000
1.364490E-11	731.689000
1.364540E-11	872.349000
1.364890E-11	1908.870000
1.364530E-11	1579.490000
1.364430E-11	682.151000
1.364610E-11	627.289000
1.365160E-11	979.404000
1.365700E-11	594.131000
1.364990E-11	745.590000
1.365330E-11	777.832000
1.364870E-11	1870.430000
1.364600E-11	867.235000
1.363990E-11	1092.950000
1.365080E-11	578.400000
1.364400E-11	885.292000
1.364620E-11	1820.280000
1.364900E-11	1740.750000
1.364720E-11	1470.140000
1.364400E-11	1561.180000
1.364570E-11	571.351000
1.365920E-11	760.298000
1.365440E-11	2808.960000
1.365200E-11	2632.560000
1.364740E-11	1639.340000
1.365280E-11	1552.600000
1.364130E-11	947.027000
1.363810E-11	1076.160000
1.364780E-11	575.970000
1.365850E-11	1174.590000
1.364840E-11	735.531000
1.365770E-11	1277.100000
1.364270E-11	1340.530000
1.363890E-11	685.040000
1.366060E-11	789.839000
1.365040E-11	1022.770000
1.365000E-11	954.924000
1.365650E-11	630.915000
1.365210E-11	608.184000
1.363520E-11	1114.470000
1.364690E-11	614.596000
1.365460E-11	578.968000
1.365660E-11	999.439000
1.365100E-11	3331.630000
1.365890E-11	1055.800000
1.366070E-11	791.563000
1.365240E-11	2067.220000
1.364360E-11	842.119000
1.364970E-11	612.773000
1.364190E-11	915.271000
1.364840E-11	565.198000
1.363820E-11	608.100000
1.362420E-11	1452.670000
1.361420E-11	1596.180000
1.358950E-11	805.389000
1.359910E-11	800.884000
1.361610E-11	1265.550000
1.361460E-11	587.473000
1.364220E-11	1702.650000
1.363920E-11	2128.260000
1.363920E-11	1489.220000
1.364450E-11	537.339000
1.363460E-11	1502.150000
1.363140E-11	1195.790000
1.362880E-11	608.421000
1.364060E-11	560.670000
1.363140E-11	2247.190000
1.363040E-11	659.718000
1.362230E-11	1461.970000
1.361660E-11	2220.810000
1.360150E-11	744.449000
1.359940E-11	566.109000
1.361850E-11	700.838000
1.362600E-11	883.162000
1.360960E-11	583.731000
1.359700E-11	1300.640000
1.358340E-11	602.959000
1.359340E-11	526.178000
1.359020E-11	542.941000
1.358370E-11	570.979000
1.357630E-11	944.820000
1.358750E-11	714.644000
1.358020E-11	1631.570000
1.354780E-11	1118.020000
1.354200E-11	578.803000
1.353860E-11	960.624000
1.358060E-11	785.738000
1.357960E-11	558.822000
1.356650E-11	710.124000
1.356270E-11	1103.930000
1.356480E-11	562.863000
1.358860E-11	643.012000
1.361390E-11	1841.330000
1.362400E-11	1106.850000
1.361680E-11	4119.190000
1.360340E-11	881.374000
1.359410E-11	837.617000
1.359740E-11	649.756000
1.358770E-11	798.745000
1.357060E-11	835.781000
1.356320E-11	588.202000
1.356880E-11	1321.620000
1.356450E-11	1687.890000
1.356960E-11	1687.970000
1.357020E-11	712.791000
1.356490E-11	23726.900000
1.357460E-11	2151.000000
1.361330E-11	1086.730000
1.360370E-11	1293.500000
1.360460E-11	1310.710000
1.359940E-11	611.624000
1.360250E-11	692.574000
1.360170E-11	989.339000
1.358660E-11	961.648000
1.359130E-11	677.765000
1.358200E-11	533.032000
1.358520E-11	629.558000
1.359570E-11	806.471000
1.358270E-11	575.218000
1.357510E-11	819.396000
1.356410E-11	690.645000
1.355560E-11	1111.480000
1.359780E-11	585.268000
1.360800E-11	823.196000
1.359190E-11	1183.920000
1.356100E-11	647.528000
1.353860E-11	1141.630000
1.355730E-11	1097.370000
1.359700E-11	643.528000
1.360130E-11	592.356000
1.361750E-11	859.027000
1.361330E-11	650.162000
1.360770E-11	707.406000
1.359120E-11	665.846000
1.360180E-11	836.673000
1.362710E-11	1470.290000
1.362220E-11	790.857000
1.362770E-11	1025.900000
1.361880E-11	4689.890000
1.362350E-11	1309.200000
1.360530E-11	893.594000
1.359820E-11	1262.890000
1.359990E-11	1335.400000
1.359830E-11	952.793000
1.359340E-11	2177.120000
1.358930E-11	1325.220000
1.360120E-11	922.952000
1.360840E-11	575.315000
1.361370E-11	755.441000
1.360140E-11	1387.930000
1.359150E-11	1518.060000
1.358230E-11	845.976000
1.357570E-11	1039.450000
1.357280E-11	1370.550000
1.356940E-11	788.857000
1.356910E-11	1006.400000
1.358150E-11	26501.800000
1.358980E-11	1900.620000
1.358710E-11	680.606000
1.358500E-11	1555.880000
1.359160E-11	1239.120000
1.359850E-11	895.545000
1.360690E-11	3441.550000
1.360790E-11	550.762000
1.359190E-11	713.711000
1.359860E-11	751.237000
1.358640E-11	1063.760000
1.358420E-11	1075.120000
1.357730E-11	2476.380000
1.356810E-11	674.128000
1.356230E-11	789.262000
1.356130E-11	1169.340000
1.355960E-11	577.083000
1.356990E-11	1135.150000
1.458180E-11	76.242400
1.463810E-11	75.988900
1.469300E-11	68.270700
1.469040E-11	73.966500
1.469540E-11	73.511200
1.470510E-11	73.824700
1.469490E-11	71.641500
1.469290E-11	71.390200
1.470810E-11	74.401400
1.471220E-11	73.041700
1.470810E-11	75.072300
1.471650E-11	72.850700
1.471180E-11	74.879700
1.471760E-11	70.085000
1.470990E-11	70.283200
1.471390E-11	69.378600
1.471430E-11	71.465700
1.470430E-11	73.930900
1.470620E-11	73.508900
1.471210E-11	70.791400
1.472060E-11	71.467000
1.471740E-11	68.542100
1.471580E-11	72.031700
1.471340E-11	71.828700
1.472610E-11	68.978500
1.472760E-11	69.263100
1.472760E-11	74.038700
1.472320E-11	73.746900
1.471730E-11	70.241100
1.473400E-11	69.911300
1.473500E-11	69.188800
1.472700E-11	73.477400
1.473520E-11	72.474900
1.473500E-11	74.138500
1.472040E-11	73.341800
1.472750E-11	69.335800
1.472340E-11	69.190900
1.471420E-11	68.544200
1.470320E-11	71.896000
1.469750E-11	69.906700
1.469960E-11	69.626200
1.469330E-11	68.071800
1.468100E-11	74.454000
1.467650E-11	71.569000
1.469000E-11	71.093700
1.468030E-11	69.761900
1.469960E-11	71.140600
1.468080E-11	69.780400
1.467170E-11	70.484400
1.466420E-11	71.785100
1.466190E-11	72.911200
1.467600E-11	69.908100
1.469910E-11	68.001100
1.470570E-11	71.694900
1.469350E-11	71.884000
1.470230E-11	73.056900
1.467140E-11	70.410600
1.466050E-11	71.491900
1.466460E-11	74.167300
1.466870E-11	74.416900
1.466080E-11	72.763600
1.466260E-11	71.720300
1.465960E-11	74.863000
1.466510E-11	73.041500
1.480270E-11	59.258200
1.481300E-11	57.981200
1.482250E-11	56.522900
1.482630E-11	58.620400
1.515390E-11	47.274900
1.482850E-11	53.839100
1.481980E-11	53.488500
1.482350E-11	53.294500
1.486630E-11	51.913800
1.486890E-11	52.020400
1.489220E-11	53.443100
1.489400E-11	52.153100
1.488770E-11	51.834800
1.488280E-11	51.333800
1.488540E-11	53.206200
1.488900E-11	52.244400
1.488500E-11	51.461400
1.487930E-11	52.335700
1.489170E-11	52.572400
1.487870E-11	53.192900
1.488720E-11	51.592500
1.488340E-11	51.623300
1.487620E-11	53.439700
1.488410E-11	52.549000
1.488630E-11	51.299500
1.489480E-11	54.038100
1.489610E-11	52.787400
1.488220E-11	53.831900
1.489130E-11	51.751800
1.488460E-11	52.251300
1.487690E-11	53.211600
1.487250E-11	52.976300
1.486530E-11	53.672900
1.486450E-11	51.123600
1.485770E-11	52.714000
1.485570E-11	53.064500
1.484990E-11	52.604700
1.484960E-11	54.132100
1.483920E-11	51.925400
1.484830E-11	52.987100
1.485300E-11	54.720300
1.485260E-11	50.749600
1.484170E-11	52.288900
1.483910E-11	51.900100
1.484470E-11	53.546400
1.485370E-11	53.132700
1.483240E-11	52.346500
1.482770E-11	52.867700
1.483230E-11	54.128100
1.483930E-11	52.177900
1.487080E-11	53.757400
1.487970E-11	53.419700
1.489390E-11	52.493600
1.489300E-11	53.097200
1.488020E-11	53.657300
1.487380E-11	52.333100
1.487600E-11	51.654600
1.487980E-11	52.573100
1.488050E-11	52.129600
1.487900E-11	51.274200
1.488000E-11	52.902000
1.487980E-11	53.079900
1.487290E-11	51.801400
1.485020E-11	52.420100
1.482890E-11	55.101200
1.481640E-11	52.593800
1.481810E-11	52.848500
1.482590E-11	50.609500
1.490380E-11	49.696200
1.491370E-11	49.935900
1.491340E-11	49.041600
1.490780E-11	49.189200
1.491680E-11	49.601600
1.491560E-11	50.778500
1.490780E-11	48.844700
1.490710E-11	50.454900
1.490260E-11	49.649200
1.489890E-11	49.112600
1.491160E-11	48.117100
1.491770E-11	50.112500
1.490540E-11	48.048900
1.491450E-11	49.915900
1.491890E-11	48.546400
1.491730E-11	47.904600
1.491840E-11	49.713100
1.491470E-11	49.415600
1.491920E-11	48.079700
1.492050E-11	48.496700
1.491990E-11	48.563500
1.492790E-11	50.290300
1.492850E-11	47.770200
1.493010E-11	47.612300
1.493830E-11	48.485500
1.492260E-11	49.892700
1.494300E-11	49.159100
1.493270E-11	49.961400
1.493660E-11	47.725700
1.494150E-11	47.256000
1.493740E-11	50.448000
1.494380E-11	48.017700
1.493230E-11	50.061600
1.494730E-11	49.835700
1.495410E-11	49.607700
1.493870E-11	50.247200
1.494490E-11	49.323600
1.494150E-11	49.862600
1.493190E-11	48.294300
1.494420E-11	48.804100
1.493830E-11	50.319700
1.493680E-11	48.260300
1.495350E-11	48.634300
1.493840E-11	47.850600
1.492840E-11	47.747200
1.492640E-11	47.889200
1.492900E-11	48.623800
1.491300E-11	50.214800
1.492050E-11	47.731300
1.491500E-11	48.661200
1.493840E-11	48.251800
1.487690E-11	50.625000
1.492700E-11	45.746700
1.495620E-11	46.523800
1.494030E-11	46.130300
1.493170E-11	46.066900
1.491950E-11	46.697600
1.491400E-11	48.403100
1.491040E-11	46.334400
1.491650E-11	46.349500
1.492400E-11	47.289400
1.492060E-11	47.252400
1.495250E-11	48.672600
1.495430E-11	47.651100
1.494690E-11	47.621600
1.494550E-11	45.725900
1.494160E-11	45.985600
1.493570E-11	46.213800
1.491630E-11	48.576600
1.492720E-11	47.838000
1.495070E-11	46.765700
1.495050E-11	45.597300
1.496320E-11	46.821500
1.496510E-11	47.561400
1.495510E-11	45.894500
1.495580E-11	45.575100
1.495700E-11	46.114400
1.495510E-11	46.692300
1.494900E-11	47.401200
1.494340E-11	46.279200
1.494040E-11	46.314800
1.496820E-11	46.355800
1.497000E-11	45.587400
1.498280E-11	46.916700
1.497620E-11	47.513100
1.497790E-11	47.615200
1.497230E-11	45.085200
1.498690E-11	46.458900
1.497640E-11	47.592100
1.497380E-11	44.852700
1.496830E-11	47.680100
1.496860E-11	47.385100
1.497880E-11	46.240400
1.498410E-11	46.372600
1.498040E-11	47.134900
1.497110E-11	46.536600
1.496550E-11	45.924400
1.497950E-11	45.874100
1.497250E-11	45.268800
1.497380E-11	45.723000
1.497660E-11	45.557500
1.497400E-11	46.966600
1.497780E-11	47.365800
1.496410E-11	46.463000
1.497910E-11	45.168400
1.496660E-11	46.263500
1.496300E-11	46.888800
1.497090E-11	47.046900
1.496050E-11	46.132600
1.496280E-11	45.490000
1.497460E-11	47.628200
1.497600E-11	47.955000
1.497090E-11	47.179300
1.496750E-11	46.433900
1.496960E-11	45.183000
1.497620E-11	45.997500
1.497810E-11	45.822300
1.497360E-11	45.895200
1.497770E-11	45.664300
1.496640E-11	46.335200
1.496750E-11	45.380300
1.496360E-11	45.689900
1.497910E-11	46.476700
1.496000E-11	47.057100
1.496400E-11	45.568200
1.496720E-11	47.452500
1.496550E-11	44.755900
1.496650E-11	44.899400
1.496060E-11	46.554500
1.496640E-11	47.331000
1.496230E-11	46.354800
1.496310E-11	45.949100
1.496200E-11	46.692400
1.497750E-11	46.609300
1.497460E-11	46.173400
1.496890E-11	46.038400
1.497650E-11	46.783100
1.495680E-11	46.084600
1.496410E-11	45.093900
1.496540E-11	45.261300
1.497300E-11	46.601500
1.497570E-11	45.053800
1.496690E-11	45.326000
1.497280E-11	47.189300
1.496880E-11	44.725900
1.496790E-11	45.064100
1.495900E-11	46.318300
1.495940E-11	47.356800
1.495900E-11	46.213200
1.496940E-11	45.921800
1.496010E-11	45.965500
1.495440E-11	47.222900
1.494520E-11	46.312200
1.491840E-11	46.616800
1.491010E-11	47.250500
1.489760E-11	46.511600
1.489510E-11	45.376400
1.487430E-11	45.566400
1.481560E-11	48.981100
1.464630E-11	53.539900
1.452720E-11	66.513800
1.467990E-11	55.767400
1.475360E-11	48.265900
1.475220E-11	49.208000
1.473760E-11	52.136700
1.472750E-11	52.508500
1.479730E-11	46.973000
1.477650E-11	49.161900
1.479690E-11	49.342500
1.482790E-11	49.635600
1.482830E-11	49.345600
1.480010E-11	49.634500
1.478150E-11	49.984300
1.475810E-11	51.371800
1.476440E-11	49.961600
1.476820E-11	50.062400
1.479090E-11	51.578500
1.477740E-11	49.983500
1.478750E-11	50.520900
1.479580E-11	51.432400
1.476780E-11	49.914500
1.479600E-11	49.454300
1.480010E-11	52.165900
1.478890E-11	52.012200
1.476860E-11	52.416900
1.475060E-11	51.057100
1.474140E-11	51.906200
1.471470E-11	51.436500
1.470660E-11	50.770600
1.464640E-11	61.167000
1.469580E-11	58.827000
1.469860E-11	61.683000
1.467660E-11	61.627100
1.465700E-11	61.486900
1.470010E-11	57.805100
1.467660E-11	60.090000
1.465540E-11	62.540600
1.465030E-11	60.498700
1.460450E-11	63.411600
1.371420E-11	359.802000
1.358210E-11	701.797000
1.359530E-11	933.981000
1.358320E-11	1161.590000
1.390140E-11	209.083000
1.390440E-11	186.136000
1.395180E-11	163.047000
1.398680E-11	164.226000
1.400990E-11	166.549000
1.400980E-11	165.633000
1.402460E-11	185.283000
1.401180E-11	169.877000
1.402110E-11	188.962000
1.400970E-11	163.519000
1.401910E-11	179.038000
1.402210E-11	191.360000
1.402140E-11	172.844000
1.402450E-11	191.130000
1.402340E-11	187.852000
1.402140E-11	171.967000
1.402190E-11	156.689000
1.402230E-11	163.248000
1.401790E-11	192.738000
1.401560E-11	197.274000
1.401250E-11	174.242000
1.400870E-11	185.309000
1.401100E-11	178.953000
1.401190E-11	177.646000
1.402590E-11	167.464000
1.401540E-11	186.547000
1.402910E-11	169.724000
1.400880E-11	186.369000
1.402350E-11	165.951000
1.402640E-11	163.032000
1.402150E-11	160.978000
1.402130E-11	154.330000
1.403090E-11	164.679000
1.402270E-11	160.535000
1.400340E-11	156.123000
1.402000E-11	157.089000
1.403240E-11	162.587000
1.402980E-11	172.718000
1.402640E-11	152.305000
1.402570E-11	186.581000
1.402600E-11	183.095000
1.402290E-11	183.462000
1.401560E-11	158.305000
1.401460E-11	180.005000
1.402240E-11	147.382000
1.403440E-11	178.513000
1.403140E-11	164.542000
1.402220E-11	151.942000
1.401710E-11	172.594000
1.401940E-11	166.205000
1.401320E-11	159.926000
1.401670E-11	190.593000
1.402090E-11	193.609000
1.401790E-11	183.566000
1.402530E-11	170.808000
1.402670E-11	190.510000
1.402970E-11	166.930000
1.402710E-11	153.549000
1.402560E-11	156.265000
1.402900E-11	164.118000
1.401790E-11	198.029000
1.401890E-11	152.422000
1.401710E-11	186.064000
1.401790E-11	160.440000
1.401630E-11	155.643000
1.402050E-11	191.590000
1.402950E-11	185.654000
1.402180E-11	190.839000
1.402430E-11	188.230000
1.402800E-11	179.502000
1.402710E-11	156.220000
1.403310E-11	187.375000
1.401920E-11	187.964000
1.401490E-11	180.823000
1.402780E-11	148.705000
1.401530E-11	180.591000
1.401300E-11	175.130000
1.402280E-11	148.426000
1.403150E-11	168.985000
1.402090E-11	161.323000
1.403060E-11	174.986000
1.401860E-11	180.321000
1.401840E-11	155.023000
1.402960E-11	168.995000
1.402950E-11	163.059000
1.402780E-11	171.876000
1.402960E-11	167.805000
1.402830E-11	155.707000
1.401440E-11	155.761000
1.402760E-11	158.507000
1.403230E-11	168.674000
1.403200E-11	189.465000
1.401080E-11	165.946000
1.402800E-11	195.178000
1.402000E-11	204.887000
1.401070E-11	169.369000
1.402230E-11	157.367000
1.402810E-11	195.666000
1.402430E-11	148.956000
1.402420E-11	189.412000
1.402710E-11	193.661000
1.402000E-11	158.164000
1.402690E-11	148.291000
1.402930E-11	163.717000
1.402280E-11	155.657000
1.401670E-11	150.464000
1.401780E-11	179.809000
1.401920E-11	150.568000
1.401520E-11	177.584000
1.401540E-11	172.030000
1.401880E-11	185.819000
1.402860E-11	171.456000
1.402780E-11	187.412000
1.401860E-11	194.845000
1.401820E-11	163.545000
1.403350E-11	171.578000
1.401840E-11	161.789000
1.402810E-11	175.415000
1.402950E-11	159.078000
1.401830E-11	153.416000
1.401930E-11	151.146000
1.402560E-11	159.283000
1.402260E-11	154.523000
1.401220E-11	165.880000
1.402270E-11	182.705000
1.401320E-11	163.319000
1.401830E-11	157.203000
1.401620E-11	175.147000
1.401910E-11	197.102000
1.402340E-11	167.756000
1.403260E-11	174.505000
1.401740E-11	200.091000
1.401110E-11	171.130000
1.402280E-11	153.953000
1.401660E-11	164.407000
1.402680E-11	172.300000
1.403040E-11	162.846000
1.401280E-11	167.399000
1.400940E-11	175.043000
1.401420E-11	161.014000
1.401440E-11	171.642000
1.401390E-11	159.821000
1.401750E-11	175.956000
1.400580E-11	174.907000
1.401190E-11	154.143000
1.401890E-11	154.523000
1.402870E-11	179.372000
1.402070E-11	158.806000
1.402330E-11	160.278000
1.402940E-11	174.096000
1.401700E-11	188.957000
1.401490E-11	148.480000
1.401720E-11	170.783000
1.401990E-11	160.437000
1.401580E-11	158.308000
1.401410E-11	182.432000
1.401030E-11	190.422000
1.401410E-11	164.811000
1.401350E-11	170.358000
1.401790E-11	191.930000
1.401960E-11	165.956000
1.401780E-11	193.029000
1.401330E-11	186.685000
1.400680E-11	176.983000
1.401860E-11	152.057000
1.401400E-11	167.847000
1.400890E-11	161.607000
1.401150E-11	153.271000
1.402310E-11	175.893000
1.401020E-11	179.822000
1.401650E-11	182.169000
1.401130E-11	164.127000
1.402020E-11	155.997000
1.402210E-11	181.069000
1.403040E-11	152.708000
1.402230E-11	190.769000
1.402350E-11	181.099000
1.402450E-11	158.515000
1.402070E-11	161.577000
1.402410E-11	157.670000
1.402700E-11	164.986000
1.402610E-11	178.520000
1.403230E-11	169.251000
1.401920E-11	185.405000
1.402970E-11	176.627000
1.402020E-11	199.197000
1.401890E-11	162.212000
1.402540E-11	166.057000
1.402250E-11	158.838000
1.402920E-11	178.076000
1.402780E-11	160.516000
1.402290E-11	157.111000
1.401640E-11	182.283000
1.401230E-11	156.850000
1.401430E-11	152.429000
1.401650E-11	171.353000
1.402010E-11	190.770000
1.402030E-11	173.766000
1.403120E-11	174.932000
1.402830E-11	199.879000
1.402130E-11	163.324000
1.401860E-11	153.892000
1.401670E-11	164.045000
1.402490E-11	163.197000
1.402330E-11	180.372000
1.403040E-11	169.711000
1.402450E-11	186.771000
1.401200E-11	163.024000
1.401670E-11	184.458000
1.402460E-11	179.657000
1.401350E-11	160.643000
1.399770E-11	168.087000
1.399320E-11	184.894000
1.398440E-11	161.886000
1.397020E-11	157.418000
1.418160E-11	109.872000
1.406970E-11	142.291000
1.406370E-11	149.242000
1.406220E-11	143.625000
1.406140E-11	165.740000
1.405590E-11	158.386000
1.404480E-11	171.963000
1.403710E-11	164.588000
1.404360E-11	187.564000
1.403320E-11	152.637000
1.405030E-11	147.185000
1.404030E-11	147.411000
1.403480E-11	169.005000
1.404340E-11	171.061000
1.404180E-11	165.672000
1.404340E-11	177.050000
1.404420E-11	167.007000
1.404560E-11	142.967000
1.404750E-11	159.041000
1.405270E-11	178.474000
1.404630E-11	178.240000
1.403340E-11	160.865000
1.404340E-11	186.076000
1.404170E-11	190.690000
1.403230E-11	162.403000
1.403490E-11	149.506000
1.405270E-11	164.340000
1.403620E-11	151.279000
1.404740E-11	163.816000
1.404970E-11	147.960000
1.403680E-11	169.483000
1.403520E-11	174.962000
1.403210E-11	161.241000
1.403770E-11	167.565000
1.404530E-11	180.025000
1.404180E-11	151.374000
1.404670E-11	164.511000
1.404480E-11	171.270000
1.404270E-11	175.248000
1.402980E-11	147.244000
1.404040E-11	172.844000
1.403950E-11	178.575000
1.403400E-11	176.305000
1.403500E-11	155.251000
1.404940E-11	148.955000
1.403760E-11	154.515000
1.405010E-11	166.499000
1.403430E-11	142.897000
1.403060E-11	158.029000
1.403670E-11	175.853000
1.402760E-11	165.759000
1.403580E-11	166.789000
1.405090E-11	163.991000
1.404520E-11	153.286000
1.404570E-11	155.674000
1.404270E-11	167.982000
1.403870E-11	180.605000
1.403670E-11	173.194000
1.403680E-11	180.201000
1.404140E-11	174.686000
1.403960E-11	174.147000
1.403250E-11	156.814000
1.402880E-11	169.825000
1.403700E-11	148.155000
1.404950E-11	157.758000
1.404290E-11	146.052000
1.402570E-11	168.874000
1.403160E-11	179.454000
1.404550E-11	185.188000
1.403760E-11	185.445000
1.404620E-11	179.794000
1.404950E-11	152.478000
1.405300E-11	159.498000
1.404990E-11	170.515000
1.404520E-11	181.887000
1.403470E-11	155.632000
1.404310E-11	189.251000
1.404900E-11	181.640000
1.404470E-11	185.149000
1.402950E-11	154.637000
1.404450E-11	142.370000
1.403210E-11	160.076000
1.404210E-11	151.969000
1.403910E-11	149.394000
1.404050E-11	183.932000
1.403900E-11	184.253000
1.403630E-11	180.339000
1.404400E-11	170.340000
1.403610E-11	160.647000
1.403890E-11	160.721000
1.405100E-11	150.633000
1.404920E-11	154.384000
1.405120E-11	158.565000
1.403880E-11	185.752000
1.404350E-11	167.738000
1.405120E-11	164.205000
1.403850E-11	147.669000
1.403580E-11	175.905000
1.403230E-11	150.349000
1.403900E-11	159.809000
1.404300E-11	149.320000
1.403450E-11	171.028000
1.403990E-11	177.619000
1.403950E-11	151.018000
1.404740E-11	188.800000
1.404900E-11	178.752000
1.404970E-11	160.168000
1.404090E-11	151.235000
1.404360E-11	151.616000
1.403340E-11	171.473000
1.403110E-11	158.881000
1.404490E-11	171.774000
1.405270E-11	158.374000
1.405040E-11	156.093000
1.405390E-11	161.333000
1.404810E-11	182.120000
1.405120E-11	154.454000
1.404570E-11	179.246000
1.404890E-11	147.573000
1.405220E-11	170.717000
1.406090E-11	175.296000
1.406290E-11	161.148000
1.406090E-11	159.945000
1.406560E-11	152.047000
1.405310E-11	151.462000
1.404310E-11	168.462000
1.404660E-11	154.061000
1.405850E-11	174.498000
1.405440E-11	183.280000
1.405690E-11	179.400000
1.404170E-11	143.104000
1.402860E-11	142.407000
1.403810E-11	146.105000
1.403520E-11	168.422000
1.400670E-11	172.831000
1.401080E-11	157.969000
1.398540E-11	165.823000
1.398700E-11	155.336000
1.398950E-11	151.262000
1.398640E-11	154.757000
1.403560E-11	144.835000
1.403100E-11	154.260000
1.400990E-11	179.817000
1.403290E-11	162.963000
1.403220E-11	163.210000
1.401400E-11	163.698000
1.400740E-11	164.813000
1.398350E-11	150.599000
1.415900E-11	178.927000
1.399280E-11	170.568000
1.397860E-11	176.124000
1.397920E-11	151.639000
1.399780E-11	155.285000
1.402440E-11	143.361000
1.409040E-11	150.327000
1.407970E-11	153.897000
1.407630E-11	162.778000
1.408850E-11	165.247000
1.409630E-11	173.965000
1.408980E-11	177.527000
1.409280E-11	154.290000
1.408510E-11	132.519000
1.408620E-11	142.442000
1.409140E-11	139.950000
1.409660E-11	149.362000
1.409400E-11	163.978000
1.409800E-11	148.963000
1.409040E-11	144.671000
1.409720E-11	144.410000
1.408920E-11	179.299000
1.407560E-11	152.737000
1.409110E-11	169.354000
1.408200E-11	158.993000
1.409070E-11	171.304000
1.408740E-11	145.246000
1.409080E-11	135.092000
1.408870E-11	141.212000
1.408760E-11	140.829000
1.407790E-11	171.187000
1.408800E-11	156.962000
1.409060E-11	176.385000
1.409450E-11	144.691000
1.409200E-11	146.349000
1.407610E-11	141.229000
1.407990E-11	157.274000
1.409390E-11	167.313000
1.408370E-11	175.297000
1.408270E-11	149.427000
1.407720E-11	150.667000
1.408180E-11	143.950000
1.409590E-11	145.798000
1.408680E-11	173.497000
1.407840E-11	160.094000
1.408170E-11	159.674000
1.408850E-11	179.144000
1.408870E-11	175.507000
1.407440E-11	159.125000
1.407980E-11	136.092000
1.408260E-11	138.827000
1.407800E-11	143.922000
1.407660E-11	134.639000
1.407220E-11	173.729000
1.407990E-11	146.557000
1.406250E-11	143.836000
1.407030E-11	158.665000
1.406430E-11	178.478000
1.405380E-11	167.977000
1.406880E-11	174.627000
1.405730E-11	165.825000
1.406080E-11	178.252000
1.406190E-11	138.616000
1.405750E-11	142.682000
1.405410E-11	157.316000
1.405270E-11	148.219000
1.404150E-11	160.703000
1.406230E-11	158.201000
1.405370E-11	182.144000
1.404850E-11	183.499000
1.404130E-11	169.099000
1.365010E-11	803.381000
1.368470E-11	1230.310000
1.403790E-11	137.363000
1.403070E-11	131.112000
1.403740E-11	119.018000
1.407520E-11	117.947000
1.409520E-11	113.954000
1.412820E-11	110.648000
1.411070E-11	106.952000
1.411040E-11	115.514000
1.412650E-11	113.432000
1.411680E-11	122.455000
1.411570E-11	118.668000
1.411890E-11	103.210000
1.412020E-11	100.633000
1.412340E-11	105.238000
1.412720E-11	108.796000
1.412730E-11	108.806000
1.412040E-11	112.638000
1.413210E-11	114.663000
1.412750E-11	105.159000
1.411020E-11	106.673000
1.412570E-11	120.924000
1.413090E-11	115.550000
1.411400E-11	120.667000
1.411280E-11	107.145000
1.413040E-11	99.855900
1.413460E-11	111.767000
1.413160E-11	107.417000
1.413380E-11	104.334000
1.412870E-11	102.171000
1.411830E-11	103.369000
1.411870E-11	111.992000
1.411210E-11	102.959000
1.411890E-11	102.018000
1.412750E-11	96.625900
1.414060E-11	106.668000
1.412940E-11	102.169000
1.412140E-11	102.455000
1.413350E-11	99.891400
1.414250E-11	109.435000
1.412570E-11	117.159000
1.413570E-11	107.098000
1.411890E-11	112.613000
1.413280E-11	126.521000
1.412740E-11	112.053000
1.412060E-11	99.843400
1.413340E-11	102.304000
1.413040E-11	103.505000
1.411250E-11	110.112000
1.412380E-11	115.310000
1.412590E-11	116.397000
1.411730E-11	108.807000
1.412400E-11	104.274000
1.412800E-11	102.979000
1.412650E-11	104.097000
1.412510E-11	111.429000
1.411990E-11	104.961000
1.413740E-11	108.985000
1.413370E-11	113.892000
1.413810E-11	108.830000
1.412390E-11	116.313000
1.413870E-11	104.138000
1.413520E-11	100.054000
1.412340E-11	107.788000
1.413210E-11	100.880000
1.412970E-11	97.533800
1.414330E-11	105.962000
1.413290E-11	115.821000
1.412540E-11	110.480000
1.414590E-11	101.929000
1.414640E-11	107.935000
1.413250E-11	103.197000
1.412320E-11	102.885000
1.412420E-11	104.781000
1.412930E-11	99.795500
1.414570E-11	104.104000
1.413760E-11	111.186000
1.414580E-11	100.389000
1.413600E-11	112.560000
1.412640E-11	107.777000
1.413040E-11	98.978000
1.412550E-11	103.036000
1.412880E-11	106.265000
1.412870E-11	106.046000
1.412330E-11	110.355000
1.414490E-11	108.192000
1.413390E-11	115.087000
1.413780E-11	104.658000
1.413460E-11	109.083000
1.412930E-11	98.049500
1.412740E-11	114.725000
1.412920E-11	112.501000
1.412230E-11	106.772000
1.413290E-11	98.319900
1.414080E-11	118.618000
1.413220E-11	103.671000
1.413120E-11	116.237000
1.413960E-11	105.348000
1.412380E-11	108.120000
1.412570E-11	115.302000
1.412230E-11	105.118000
1.412420E-11	106.835000
1.414040E-11	116.270000
1.413710E-11	106.778000
1.413960E-11	106.110000
1.413400E-11	109.243000
1.413550E-11	112.120000
1.412480E-11	106.229000
1.413200E-11	109.953000
1.413330E-11	111.422000
1.413870E-11	101.305000
1.413160E-11	103.907000
1.413490E-11	98.568800
1.413240E-11	97.206100
1.413990E-11	108.641000
1.413110E-11	101.577000
1.411740E-11	122.725000
1.416700E-11	110.061000
1.423620E-11	111.593000
1.423940E-11	106.762000
1.423880E-11	107.323000
1.420050E-11	102.115000
1.422590E-11	101.649000
1.417650E-11	105.681000
1.425030E-11	98.700300
1.421670E-11	94.707000
1.422990E-11	94.755500
1.423680E-11	94.049200
1.421740E-11	97.627600
1.422460E-11	85.777200
1.423660E-11	89.383800
1.423010E-11	87.205900
1.424370E-11	84.774500
1.422970E-11	85.950600
1.422900E-11	89.849600
1.422550E-11	94.938100
1.423640E-11	91.752100
1.424180E-11	84.199300
1.424110E-11	95.008000
1.424220E-11	84.805800
1.425110E-11	90.340400
1.424770E-11	93.229800
1.423940E-11	94.113400
1.423090E-11	84.254200
1.424230E-11	92.472000
1.423920E-11	94.028400
1.423120E-11	88.610300
1.423690E-11	82.511600
1.425160E-11	93.613900
1.424040E-11	86.212700
1.424820E-11	88.361000
1.424500E-11	84.233300
1.423820E-11	86.740800
1.423210E-11	84.162200
1.424240E-11	83.201200
1.424160E-11	87.209800
1.425140E-11	86.056200
1.424340E-11	88.516800
1.423930E-11	91.684700
1.423570E-11	90.821500
1.424740E-11	91.073800
1.425020E-11	87.422000
1.424550E-11	86.036500
1.423760E-11	83.868400
1.425140E-11	84.039100
1.424800E-11	88.594000
1.423580E-11	90.644600
1.424680E-11	82.128300
1.424710E-11	91.791000
1.423770E-11	87.270000
1.424560E-11	89.390600
1.425680E-11	87.518100
1.424920E-11	91.812200
1.424980E-11	92.532700
1.425610E-11	85.801100
1.424820E-11	85.372800
1.424760E-11	84.600800
1.425040E-11	86.671600
1.424760E-11	91.662800
1.424860E-11	88.109300
1.426600E-11	88.272500
1.428510E-11	88.689700
1.428110E-11	84.583100
1.430050E-11	80.665500
1.431000E-11	82.715200
1.432590E-11	78.886600
1.431960E-11	79.367900
1.432490E-11	77.577900
1.433310E-11	75.345300
1.431970E-11	74.851800
1.433790E-11	74.861200
1.433470E-11	73.394900
1.432390E-11	74.796900
1.432470E-11	76.193200
1.433110E-11	76.377300
1.432690E-11	73.706200
1.432150E-11	75.906300
1.434390E-11	76.739800
1.434720E-11	76.558300
1.435060E-11	73.192400
1.434080E-11	71.192200
1.433620E-11	74.421500
1.433920E-11	77.472300
1.433910E-11	72.222600
1.435610E-11	73.225900
1.434920E-11	71.991100
1.433990E-11	72.694200
1.434810E-11	75.300300
1.433970E-11	73.219600
1.433830E-11	70.843200
1.436040E-11	70.443100
1.435910E-11	75.776200
1.434800E-11	74.464600
1.434770E-11	75.325000
1.434900E-11	71.788800
1.434170E-11	73.735800
1.434840E-11	70.979300
1.434710E-11	72.008600
1.435460E-11	72.107200
1.435870E-11	77.361200
1.434820E-11	73.677500
1.434900E-11	74.881400
1.434780E-11	71.163400
1.435250E-11	74.713100
1.435770E-11	77.127000
1.435830E-11	73.790100
1.436160E-11	77.050500
1.435680E-11	79.321800
1.436400E-11	74.613500
1.436170E-11	71.731600
1.436000E-11	73.158700
1.436170E-11	74.676000
1.435810E-11	75.230600
1.435120E-11	70.162100
1.434430E-11	75.115400
1.435570E-11	75.901200
1.436650E-11	75.970100
1.436430E-11	70.842400
1.437180E-11	70.344900
1.438140E-11	75.866200
1.437990E-11	74.782900
1.439880E-11	73.000200
1.440650E-11	69.865000
1.440290E-11	69.141900
1.441920E-11	67.781200
1.443060E-11	67.714500
1.442580E-11	65.476200
1.441390E-11	66.004400
1.440210E-11	62.762000
1.443080E-11	64.695000
1.441420E-11	64.458600
1.443010E-11	66.966200
1.443940E-11	68.562300
1.444410E-11	67.924500
1.444120E-11	63.271200
1.443450E-11	63.386500
1.444690E-11	65.082900
1.443640E-11	66.729400
1.445130E-11	67.816700
1.443190E-11	68.328400
1.444090E-11	62.353200
1.443730E-11	64.953100
1.444150E-11	63.987700
1.443700E-11	63.137100
1.443450E-11	64.173500
1.444740E-11	68.621400
1.444090E-11	65.121800
1.444210E-11	62.428700
1.444950E-11	61.771300
1.445650E-11	66.891700
1.445850E-11	61.433400
1.446290E-11	63.444100
1.446300E-11	64.260100
1.445180E-11	67.218500
1.445290E-11	63.428700
1.444290E-11	66.508700
1.443700E-11	61.403100
1.442390E-11	63.531800
1.433270E-11	92.055600
1.421370E-11	129.890000
1.422850E-11	128.191000
1.422100E-11	133.482000
1.422660E-11	137.555000
1.422990E-11	123.246000
1.422280E-11	138.030000
1.421290E-11	119.746000
1.421860E-11	126.316000
1.421340E-11	119.291000
1.419890E-11	130.700000
1.420050E-11	129.747000
1.419870E-11	123.687000
1.421250E-11	106.643000
1.420720E-11	138.622000
1.421620E-11	130.089000
1.420190E-11	130.624000
1.420440E-11	138.951000
1.421070E-11	129.919000
1.420810E-11	120.297000
1.420540E-11	131.814000
1.420030E-11	128.043000
1.419550E-11	135.123000
1.418310E-11	127.013000
1.420070E-11	124.419000
1.420830E-11	129.083000
1.420130E-11	132.526000
1.419160E-11	129.170000
1.419260E-11	139.949000
1.418840E-11	141.418000
1.417100E-11	132.603000
1.418640E-11	117.001000
1.419500E-11	135.505000
1.418790E-11	118.669000
1.419050E-11	133.125000
1.419820E-11	126.291000
1.418640E-11	122.998000
1.418180E-11	121.136000
1.418940E-11	124.188000
1.418840E-11	127.251000
1.418000E-11	125.164000
1.418440E-11	144.193000
1.417780E-11	120.639000
1.417680E-11	122.090000
1.417950E-11	115.725000
1.419110E-11	140.097000
1.418710E-11	121.487000
1.418580E-11	131.308000
1.418950E-11	139.035000
1.417840E-11	141.130000
1.418150E-11	119.216000
1.416790E-11	137.150000
1.416870E-11	128.983000
1.415830E-11	120.150000
1.416080E-11	140.748000
1.415380E-11	150.312000
1.412420E-11	136.534000
1.411600E-11	137.399000
1.411270E-11	123.400000
1.410450E-11	130.555000
1.403520E-11	140.544000
1.410120E-11	91.020500
1.414160E-11	132.795000
1.412300E-11	128.670000
1.409790E-11	139.464000
1.394260E-11	142.906000
1.398900E-11	162.885000
1.402540E-11	154.196000
1.404070E-11	157.406000
1.403940E-11	158.522000
1.398430E-11	182.903000
1.396930E-11	210.380000
1.395790E-11	181.597000
1.387270E-11	255.271000
1.401660E-11	202.743000
1.402220E-11	208.821000
1.399410E-11	218.493000
1.399380E-11	184.313000
1.403620E-11	173.552000
1.405060E-11	192.493000
1.404190E-11	188.023000
1.405500E-11	193.663000
1.405250E-11	199.177000
1.403300E-11	193.893000
1.402730E-11	222.622000
1.404270E-11	172.030000
1.405080E-11	161.083000
1.403680E-11	178.750000
1.403450E-11	202.346000
1.402430E-11	157.204000
1.402250E-11	165.322000
1.401840E-11	206.699000
1.401650E-11	179.937000
1.402210E-11	167.293000
1.402020E-11	190.838000
1.402600E-11	197.078000
1.402550E-11	197.798000
1.403640E-11	215.082000
1.402660E-11	207.410000
1.402970E-11	146.325000
1.403060E-11	171.577000
1.403170E-11	182.573000
1.402470E-11	170.044000
1.400880E-11	199.538000
1.399790E-11	189.296000
1.398860E-11	189.605000
1.400730E-11	174.410000
1.398500E-11	217.289000
1.403100E-11	162.195000
1.403220E-11	173.617000
1.403590E-11	159.418000
1.405320E-11	151.215000
1.407050E-11	149.456000
1.406150E-11	157.535000
1.404960E-11	170.517000
1.403750E-11	148.981000
1.403610E-11	162.395000
1.466410E-11	75.081300
1.469530E-11	74.004000
1.469730E-11	74.982400
1.469810E-11	74.857100
1.468510E-11	77.037900
1.467300E-11	75.717800
1.471430E-11	70.411300
1.473580E-11	67.371400
1.471330E-11	69.157300
1.472300E-11	68.217000
1.474720E-11	68.384600
1.475430E-11	67.233000
1.478470E-11	64.862400
1.480910E-11	68.612000
1.480780E-11	68.169400
1.480290E-11	68.537900
1.480590E-11	65.185500
1.480640E-11	64.264800
1.481440E-11	65.873100
1.481090E-11	64.639700
1.480870E-11	64.976400
1.481480E-11	66.152900
1.480100E-11	66.731400
1.480850E-11	62.947800
1.480290E-11	63.785800
1.481450E-11	67.891100
1.480900E-11	63.690400
1.480680E-11	64.412100
1.479810E-11	65.913700
1.480520E-11	63.277000
1.481240E-11	63.775800
1.480540E-11	63.529100
1.480570E-11	65.937700
1.481140E-11	62.916100
1.481400E-11	64.724900
1.481880E-11	65.822300
1.480740E-11	66.861200
1.481090E-11	67.219600
1.481170E-11	67.606600
1.480150E-11	63.923900
1.480810E-11	64.391300
1.479630E-11	69.085600
1.479100E-11	65.704900
1.476140E-11	64.681000
1.476550E-11	65.139700
1.475770E-11	66.423800
1.476060E-11	69.106700
1.475130E-11	65.691900
1.476010E-11	65.568600
1.478750E-11	64.956500
1.478880E-11	65.837500
1.475950E-11	66.538200
1.475380E-11	68.110100
1.474330E-11	67.134100
1.473240E-11	68.330300
1.485380E-11	54.106900
1.490840E-11	53.976200
1.490960E-11	54.634900
1.490300E-11	52.970000
1.491940E-11	53.487900
1.490960E-11	52.320300
1.490710E-11	53.821600
1.491530E-11	54.758400
1.491630E-11	51.475600
1.491560E-11	51.820700
1.491570E-11	54.095400
1.491410E-11	53.740600
1.491940E-11	53.851600
1.491920E-11	51.278500
1.492520E-11	54.178600
1.492790E-11	51.874100
1.493070E-11	52.608000
1.492720E-11	52.062900
1.492510E-11	52.020500
1.493420E-11	54.473700
1.492260E-11	52.961700
1.492220E-11	54.521900
1.493050E-11	53.481800
1.491980E-11	53.262000
1.492690E-11	54.875100
1.492700E-11	54.728900
1.492290E-11	53.679500
1.491500E-11	53.373200
1.491720E-11	54.562200
1.491730E-11	55.514800
1.491480E-11	54.398700
1.491150E-11	53.183600
1.486680E-11	56.413200
1.397040E-11	193.170000
1.478800E-11	57.844000
1.501690E-11	47.718100
1.503300E-11	45.872900
1.483400E-11	52.280100
1.499720E-11	48.797500
1.493640E-11	53.665800
1.505050E-11	45.867700
1.504590E-11	45.903700
1.505970E-11	46.306100
1.504640E-11	45.589500
1.506270E-11	40.003100
1.506460E-11	41.772100
1.508930E-11	41.262600
1.510090E-11	41.636300
1.509360E-11	41.361900
1.509370E-11	41.599600
1.510130E-11	41.584800
1.510930E-11	41.780800
1.510490E-11	41.764800
1.510200E-11	41.457100
1.509780E-11	41.589200
1.509570E-11	42.208100
1.509910E-11	40.619300
1.510790E-11	41.459200
1.510680E-11	41.548300
1.510030E-11	41.762800
1.510170E-11	40.690500
1.509210E-11	41.073200
1.510110E-11	41.622900
1.509680E-11	42.054800
1.509810E-11	40.945600
1.510000E-11	40.824700
1.509700E-11	41.605800
1.510140E-11	41.680900
1.509440E-11	40.700600
1.510500E-11	40.957100
1.510590E-11	41.212600
1.509380E-11	42.160700
1.510670E-11	41.601500
1.510470E-11	42.581800
1.511000E-11	41.062100
1.511080E-11	39.936600
1.511910E-11	41.599300
1.512090E-11	40.607400
1.511230E-11	40.613500
1.512500E-11	40.165700
1.512800E-11	40.917700
1.513170E-11	41.838500
1.512160E-11	41.126700
1.512300E-11	40.932900
1.511960E-11	40.019600
1.513350E-11	40.303100
1.511840E-11	41.657900
1.512930E-11	40.681600
1.513200E-11	41.078800
1.513570E-11	40.636600
1.513240E-11	39.947600
1.513670E-11	41.282900
1.512350E-11	41.411700
1.511810E-11	40.118200
1.513300E-11	39.946800
1.512890E-11	39.646900
1.513230E-11	41.504300
1.513730E-11	41.324100
1.513760E-11	40.435600
1.512960E-11	40.273200
1.513360E-11	40.225200
1.514030E-11	40.945700
1.513770E-11	40.631900
1.512800E-11	39.778900
1.513120E-11	41.028900
1.512730E-11	40.189800
1.513540E-11	39.865500
1.512690E-11	40.215500
1.512100E-11	39.916300
1.512750E-11	40.126900
1.513550E-11	40.238100
1.512910E-11	41.449100
1.512230E-11	40.764900
1.511980E-11	41.440200
1.513900E-11	39.985300
1.512370E-11	40.553900
1.512500E-11	40.047700
1.512560E-11	41.625800
1.511960E-11	40.991100
1.512770E-11	39.882700
1.512320E-11	40.611700
1.511690E-11	41.568400
1.512540E-11	40.808300
1.513160E-11	40.402400
1.513060E-11	40.344200
1.512680E-11	41.502300
1.512680E-11	41.514400
1.512510E-11	41.185800
1.512170E-11	41.608400
1.512510E-11	40.527300
1.513100E-11	41.355100
1.513220E-11	41.054300
1.511380E-11	40.741600
1.511890E-11	41.584700
1.512630E-11	41.519300
1.512640E-11	40.644000
1.511950E-11	42.243100
1.512010E-11	41.783400
1.513170E-11	40.993500
1.512940E-11	40.549300
1.512350E-11	41.321800
1.511660E-11	41.004100
1.511400E-11	41.104800
1.512780E-11	40.585400
1.511900E-11	40.497700
1.512160E-11	40.532100
1.512350E-11	41.241800
1.511510E-11	41.461000
1.511530E-11	40.281900
1.511050E-11	40.665600
1.512160E-11	41.786100
1.512410E-11	40.400700
1.511770E-11	40.099600
1.511410E-11	40.249500
1.512210E-11	39.730300
1.511540E-11	41.082000
1.512640E-11	39.532300
1.511790E-11	40.564500
1.512870E-11	39.031600
1.513200E-11	40.027200
1.513300E-11	41.012000
1.511830E-11	40.322600
1.512630E-11	40.849200
1.511860E-11	40.592200
1.512300E-11	39.579500
1.513750E-11	39.892300
1.512620E-11	41.277800
1.513170E-11	40.824500
1.512830E-11	39.955500
1.512060E-11	40.461900
1.512820E-11	41.020600
1.512730E-11	40.198300
1.512140E-11	39.954900
1.512490E-11	40.528900
1.512080E-11	41.442800
1.513430E-11	40.867000
1.511560E-11	40.326200
1.512100E-11	39.098200
1.512890E-11	39.416400
1.512900E-11	40.717300
1.513450E-11	40.268300
1.513180E-11	41.423900
1.512560E-11	40.322700
1.511810E-11	39.959800
1.513830E-11	40.346200
1.512910E-11	39.553000
1.512270E-11	41.145600
1.513290E-11	41.208200
1.513150E-11	39.961400
1.512670E-11	39.877100
1.512410E-11	40.550000
1.513040E-11	40.967700
1.513160E-11	40.296800
1.512440E-11	39.249000
1.512060E-11	41.176000
1.511730E-11	41.603400
1.511120E-11	41.704500
1.511650E-11	40.098600
1.510860E-11	39.663200
1.510980E-11	39.804200
1.511530E-11	40.805700
1.510940E-11	41.851100
1.510520E-11	39.807200
1.509730E-11	41.038800
1.511790E-11	40.102200
1.510750E-11	40.314000
1.509950E-11	39.922700
1.509890E-11	40.621800
1.509870E-11	40.693100
1.510390E-11	39.377000
1.510020E-11	40.600800
1.510240E-11	41.181100
1.513730E-11	60.062300
1.519210E-11	35.643500
1.511350E-11	43.090200
1.515940E-11	39.368200
1.518540E-11	38.838700
1.520920E-11	35.396700
1.521550E-11	34.905500
1.520160E-11	34.809500
1.520550E-11	35.537000
1.522030E-11	34.929300
1.520360E-11	35.771000
1.521730E-11	34.360600
1.521840E-11	35.091600
1.521750E-11	35.249100
1.522370E-11	34.796600
1.521560E-11	35.944800
1.520660E-11	34.769800
1.521940E-11	34.489900
1.521660E-11	35.298800
1.521410E-11	35.611800
1.520410E-11	35.398500
1.520710E-11	35.811800
1.520920E-11	34.623100
1.520800E-11	34.830900
1.521480E-11	35.102500
1.520880E-11	35.603500
1.520890E-11	35.462400
1.520380E-11	35.399900
1.521980E-11	34.477300
1.520690E-11	35.011400
1.520410E-11	35.154000
1.521140E-11	35.693200
1.520260E-11	34.673400
1.520660E-11	34.504800
1.520660E-11	35.717100
1.520580E-11	35.410200
1.520280E-11	35.414800
1.520460E-11	35.880200
1.519960E-11	35.605600
1.521400E-11	35.769000
1.521700E-11	35.997200
1.521650E-11	35.401500
1.520110E-11	35.592600
1.520770E-11	34.964500
1.521130E-11	35.432300
1.520900E-11	35.066600
1.520180E-11	36.011200
1.520990E-11	35.872700
1.520790E-11	35.441100
1.520620E-11	34.575800
1.520830E-11	34.959600
1.521050E-11	35.562800
1.521330E-11	34.783900
1.520160E-11	34.917300
1.521190E-11	35.382800
1.521260E-11	35.620300
1.520440E-11	36.337500
1.520160E-11	34.411700
1.519540E-11	35.448700
1.519080E-11	35.298800
1.520010E-11	34.384000
1.521200E-11	35.584900
1.519320E-11	35.707500
1.520380E-11	35.836900
1.520190E-11	34.910700
1.520470E-11	35.557700
1.519700E-11	35.717700
1.519700E-11	36.536300
1.518500E-11	35.648200
1.518820E-11	35.611900
1.519360E-11	36.216000
1.520090E-11	35.617000
1.519200E-11	36.114400
1.518720E-11	35.460400
1.519040E-11	34.759900
1.518960E-11	35.395900
1.519370E-11	34.862000
1.521480E-11	35.295700
1.523470E-11	34.622700
1.521800E-11	34.409400
1.523340E-11	32.695500
1.523870E-11	32.807900
1.524520E-11	32.158700
1.524000E-11	31.559500
1.523590E-11	32.184900
1.523100E-11	32.701800
1.524290E-11	32.315300
1.524250E-11	32.242200
1.523750E-11	32.693400
1.524820E-11	32.885900
1.523750E-11	32.222300
1.524920E-11	32.801800
1.524620E-11	33.035800
1.524460E-11	33.109200
1.525480E-11	32.409900
1.525810E-11	32.532000
1.525250E-11	33.508500
1.524380E-11	32.176100
1.526450E-11	32.412400
1.524410E-11	32.091100
1.525940E-11	32.287500
1.526180E-11	31.966800
1.525050E-11	32.006000
1.524660E-11	31.536500
1.525160E-11	31.958400
1.525060E-11	32.091500
1.526010E-11	32.481400
1.524850E-11	32.821700
1.524160E-11	32.037000
1.524840E-11	31.597200
1.525760E-11	31.879000
1.525890E-11	32.930500
1.525460E-11	32.124400
1.526380E-11	32.020900
1.525250E-11	33.359100
1.524200E-11	32.499800
1.524360E-11	31.597100
1.523920E-11	32.287200
1.524820E-11	32.089800
1.524480E-11	31.838200
1.524330E-11	32.542900
1.523770E-11	32.725800
1.524080E-11	32.442600
1.523720E-11	32.206600
1.523810E-11	33.053000
1.525140E-11	32.369100
1.524410E-11	33.177800
1.525420E-11	32.317400
1.525220E-11	32.580100
1.525440E-11	32.061600
1.524290E-11	32.060300
1.523480E-11	32.131200
1.525050E-11	31.876500
1.525240E-11	32.525700
1.523490E-11	32.912700
1.525100E-11	32.685400
1.524590E-11	32.147900
1.524770E-11	33.373500
1.525680E-11	32.471600
1.525970E-11	32.174500
1.525570E-11	32.306500
1.525350E-11	32.835400
1.525260E-11	31.902100
1.524750E-11	32.234800
1.525110E-11	31.537700
1.525650E-11	32.074400
1.525610E-11	32.417400
1.524490E-11	32.381900
1.525720E-11	32.703800
1.526260E-11	32.465500
1.525400E-11	32.583900
1.525580E-11	31.719300
1.546420E-11	19.348800
1.527040E-11	32.699500
1.529920E-11	31.629400
1.529610E-11	30.217200
1.530660E-11	29.832900
1.529420E-11	30.207900
1.530230E-11	29.206100
1.530130E-11	29.277000
1.532180E-11	29.947900
1.531190E-11	30.114500
1.531500E-11	30.185200
1.532240E-11	30.365900
1.530950E-11	30.698700
1.532010E-11	29.412100
1.531780E-11	29.392600
1.531380E-11	29.622400
1.532510E-11	29.747500
1.531640E-11	30.362200
1.531910E-11	29.529800
1.531100E-11	30.183800
1.532250E-11	29.137200
1.531840E-11	29.947100
1.531630E-11	30.180000
1.531890E-11	30.025100
1.532620E-11	30.422300
1.531280E-11	30.297400
1.532470E-11	29.732200
1.532730E-11	29.470700
1.532460E-11	29.547900
1.532280E-11	28.924600
1.533100E-11	29.458700
1.531610E-11	29.687300
1.531250E-11	29.638000
1.531470E-11	30.189500
1.531700E-11	29.332200
1.532670E-11	29.577100
1.531970E-11	29.930900
1.532740E-11	30.101900
1.531000E-11	29.889900
1.532390E-11	29.089800
1.532980E-11	29.944200
1.532260E-11	29.602100
1.533210E-11	29.519200
1.533140E-11	30.054600
1.532000E-11	29.531600
1.531310E-11	29.416400
1.531540E-11	29.403700
1.532280E-11	29.735400
1.532120E-11	30.214600
1.531450E-11	29.954100
1.531580E-11	30.416000
1.531730E-11	30.123600
1.531360E-11	29.990400
1.531230E-11	29.130900
1.531700E-11	29.699100
1.532080E-11	29.477100
1.532050E-11	30.499900
1.532440E-11	29.871200
1.532090E-11	29.378200
1.530970E-11	29.685400
1.531020E-11	29.282800
1.531260E-11	29.220900
1.530610E-11	29.202200
1.530300E-11	30.136000
1.530600E-11	29.500600
1.531260E-11	29.359800
1.532000E-11	29.379100
1.531220E-11	30.243500
1.532290E-11	29.924500
1.532170E-11	29.678500
1.531440E-11	30.345000
1.530250E-11	29.561100
1.531610E-11	29.606600
1.530790E-11	29.209500
1.532740E-11	29.889500
1.531640E-11	30.616200
1.532230E-11	29.538200
1.532630E-11	29.318500
1.533400E-11	28.608100
1.533350E-11	27.888500
1.533730E-11	28.409500
1.534660E-11	28.774600
1.533770E-11	28.407200
1.535410E-11	28.390900
1.535310E-11	28.680700
1.535610E-11	28.274400
1.535480E-11	27.702600
1.535390E-11	27.842900
1.534260E-11	28.354200
1.534830E-11	28.725500
1.534660E-11	27.706100
1.534330E-11	28.383600
1.535080E-11	27.768400
1.534690E-11	27.846900
1.534410E-11	28.280400
1.535260E-11	28.371000
1.534790E-11	28.456100
1.534730E-11	28.337000
1.535100E-11	27.753400
1.536080E-11	28.544900
1.534970E-11	28.532500
1.533930E-11	27.985700
1.534340E-11	27.803600
1.536360E-11	27.923000
1.534810E-11	27.837700
1.535080E-11	27.657500
1.534540E-11	28.336000
1.535850E-11	28.343800
1.534570E-11	27.703000
1.534120E-11	28.435400
1.534950E-11	27.611800
1.534490E-11	28.053300
1.534160E-11	28.438500
1.535420E-11	28.700900
1.534960E-11	28.563000
1.534490E-11	28.468300
1.534850E-11	28.718600
1.536420E-11	28.306800
1.535150E-11	28.531900
1.534600E-11	28.266300
1.534550E-11	27.822200
1.535750E-11	27.984200
1.534900E-11	27.727200
1.535000E-11	27.520600
1.535270E-11	28.029200
1.534700E-11	28.682300
1.534440E-11	27.689100
1.534360E-11	28.416700
1.535410E-11	27.772100
1.534000E-11	28.061600
1.533880E-11	28.241000
1.534320E-11	28.530800
1.534290E-11	28.464300
1.534050E-11	28.057600
1.535400E-11	27.877600
1.535470E-11	28.542700
1.534600E-11	28.356900
1.534250E-11	28.226300
1.535110E-11	27.683900
1.536170E-11	28.078500
1.536460E-11	27.595400
1.535990E-11	27.702100
1.534320E-11	27.656100
1.534870E-11	28.390900
1.534650E-11	27.581900
1.533960E-11	27.696200
1.536060E-11	27.881200
1.534940E-11	27.837600
1.534410E-11	27.680800
1.534690E-11	28.068100
1.534680E-11	27.795300
1.535170E-11	27.344300
1.534580E-11	27.817400
1.534920E-11	28.504400
1.534750E-11	27.649900
1.535240E-11	27.553400
1.535910E-11	27.466200
1.535480E-11	28.273300
1.536270E-11	28.080400
1.536230E-11	27.997200
1.535420E-11	28.041900
1.534350E-11	27.460800
1.535890E-11	27.773100
1.535060E-11	27.364300
1.536020E-11	28.366700
1.535630E-11	27.873600
1.535410E-11	27.480200
1.535930E-11	28.416600
1.535050E-11	27.505900
1.535510E-11	27.557400
1.535050E-11	27.677000
1.533660E-11	28.021100
1.533870E-11	27.397500
1.535050E-11	27.510100
1.678300E-11	17.937900
1.534680E-11	28.911500
1.536310E-11	28.710300
1.535560E-11	28.321500
1.536790E-11	27.395500
1.537820E-11	26.471700
1.538480E-11	27.239500
1.538570E-11	26.562500
1.538210E-11	27.533200
1.538800E-11	26.973500
1.539710E-11	26.659000
1.539200E-11	26.672900
1.538810E-11	26.617400
1.540320E-11	26.818600
1.538720E-11	26.830400
1.537750E-11	26.703700
1.539660E-11	26.556800
1.540320E-11	26.967000
1.540290E-11	27.122200
1.538750E-11	26.851200
1.540100E-11	27.449000
1.539900E-11	27.129500
1.540760E-11	26.869000
1.539800E-11	26.442900
1.540210E-11	27.144500
1.540470E-11	26.667400
1.538960E-11	27.303500
1.540000E-11	27.111300
1.540610E-11	26.822600
1.539330E-11	27.113800
1.540910E-11	26.633800
1.541130E-11	26.939700
1.540730E-11	26.811400
1.539410E-11	26.446800
1.539880E-11	26.660100
1.540400E-11	26.938000
1.539450E-11	26.148000
1.539400E-11	26.847000
1.539350E-11	27.001500
1.539540E-11	26.919100
1.540920E-11	27.177700
1.540800E-11	26.631000
1.539490E-11	27.066800
1.540240E-11	27.073700
1.538470E-11	26.797000
1.539860E-11	26.900100
1.540500E-11	27.175800
1.540220E-11	26.673100
1.540990E-11	26.936800
1.539900E-11	27.447800
1.540220E-11	26.992000
1.540300E-11	26.517100
1.540210E-11	27.003300
1.539370E-11	27.271800
1.538770E-11	27.063100
1.538940E-11	26.786000
1.538180E-11	26.697000
1.538440E-11	26.840400
1.539510E-11	26.690700
1.539280E-11	27.365600
1.538890E-11	26.966000
1.538920E-11	27.252600
1.538900E-11	26.458000
1.538560E-11	27.166200
1.538640E-11	27.323000
1.539290E-11	27.062300
1.538100E-11	27.178800
1.537690E-11	26.998300
1.538840E-11	27.049100
1.539900E-11	27.138400
1.538670E-11	27.031500
1.538570E-11	27.358600
1.538480E-11	26.692900
1.539200E-11	27.074400
1.539510E-11	26.675900
1.538530E-11	26.500600
1.539200E-11	27.207300
1.538340E-11	27.108700
1.538020E-11	26.909300
1.538190E-11	26.866600
1.539980E-11	27.029700
1.538990E-11	26.908500
1.538410E-11	26.705100
1.538560E-11	27.324700
1.537450E-11	26.565700
1.538850E-11	27.456600
1.537900E-11	27.356600
1.538070E-11	27.407700
1.537800E-11	27.273500
1.537640E-11	26.871500
1.537970E-11	26.928400
1.538980E-11	27.222700
1.538790E-11	27.211600
1.539380E-11	26.942500
1.538520E-11	27.182900
1.537950E-11	26.935400
1.538550E-11	26.945200
1.538650E-11	26.693100
1.538640E-11	27.391200
1.538990E-11	26.754600
1.538450E-11	29.458200
1.537540E-11	28.046800
1.540490E-11	26.557700
1.540870E-11	26.446800
1.540260E-11	26.856800
1.540100E-11	25.985200
1.540420E-11	25.762800
1.540030E-11	26.158500
1.540490E-11	25.785600
1.540870E-11	26.195000
1.541230E-11	26.344300
1.541610E-11	26.157700
1.541520E-11	26.138800
1.541950E-11	25.987500
1.543530E-11	25.989600
1.543120E-11	25.749900
1.542110E-11	26.337900
1.543160E-11	26.030400
1.543090E-11	25.691300
1.542850E-11	25.682000
1.543760E-11	25.858500
1.543820E-11	25.868600
1.542550E-11	25.593600
1.542340E-11	25.716800
1.543120E-11	25.557000
1.544130E-11	25.718600
1.543310E-11	25.916800
1.542410E-11	25.792600
1.543160E-11	26.018400
1.543080E-11	26.140000
1.541990E-11	26.048000
1.543370E-11	25.751800
1.543880E-11	26.085200
1.543580E-11	25.903100
1.542320E-11	25.932800
1.543710E-11	25.462200
1.543710E-11	25.841600
1.543700E-11	25.408600
1.544210E-11	25.877400
1.543900E-11	25.941100
1.544520E-11	25.558300
1.543780E-11	25.570000
1.544490E-11	25.449100
1.544780E-11	25.918200
1.544480E-11	26.025900
1.543220E-11	25.445200
1.543250E-11	25.670700
1.543180E-11	25.807000
1.544300E-11	25.402600
1.544330E-11	25.569800
1.543830E-11	26.158100
1.544390E-11	25.764300
1.543720E-11	25.455600
1.543840E-11	26.059200
1.544810E-11	25.873600
1.545580E-11	25.558400
1.544120E-11	25.978400
1.544320E-11	25.953900
1.544500E-11	25.255700
1.544680E-11	25.611400
1.544540E-11	25.934000
1.544440E-11	26.114600
1.545120E-11	25.552000
1.544070E-11	25.870100
1.544540E-11	25.376900
1.543890E-11	25.200000
1.545440E-11	25.189500
1.545410E-11	26.001700
1.544040E-11	25.332800
1.544630E-11	25.622700
1.544870E-11	25.276000
1.544320E-11	25.021800
1.544360E-11	25.552200
1.544900E-11	25.950600
1.544270E-11	25.451000
1.544180E-11	25.426100
1.543860E-11	25.633900
1.544240E-11	25.654800
1.541430E-11	25.581500
1.540450E-11	25.173000
1.540550E-11	25.345600
1.462340E-11	75.515700
1.494600E-11	52.898600
1.496640E-11	54.227900
1.496370E-11	56.192000
1.494420E-11	55.646600
1.495030E-11	52.454800
1.494120E-11	53.894800
1.494920E-11	53.073500
1.494640E-11	52.227600
1.493290E-11	53.536700
1.492880E-11	54.300000
1.493250E-11	54.356900
1.493100E-11	52.773300
1.492320E-11	53.159000
1.493440E-11	55.046600
1.491980E-11	53.696400
1.493110E-11	52.074100
1.493450E-11	53.084700
1.493360E-11	55.555800
1.493490E-11	54.449100
1.493930E-11	54.664300
1.492310E-11	52.687900
1.491710E-11	53.598900
1.492330E-11	54.708100
1.492080E-11	53.312100
1.492920E-11	54.604400
1.493240E-11	53.539900
1.492050E-11	52.919700
1.493000E-11	53.391100
1.492440E-11	52.350600
1.491880E-11	53.062400
1.492400E-11	54.513000
1.491570E-11	54.264400
1.491080E-11	51.747700
1.491930E-11	51.475900
1.492540E-11	52.696800
1.491430E-11	55.862800
1.492170E-11	53.977200
1.492230E-11	55.222500
1.490780E-11	55.709000
1.490750E-11	52.607700
1.492510E-11	54.591200
1.491150E-11	51.933000
1.491490E-11	54.782000
1.492140E-11	53.792800
1.491040E-11	52.666300
1.490290E-11	51.785000
1.490460E-11	52.913100
1.490950E-11	52.916300
1.491350E-11	53.894500
1.490290E-11	54.472200
1.490870E-11	51.185900
1.491630E-11	52.209300
1.491510E-11	54.027800
1.489420E-11	54.238000
1.490920E-11	54.394700
1.491030E-11	55.580400
1.489900E-11	55.054900
1.490010E-11	51.907600
1.491230E-11	54.300700
1.489630E-11	52.182000
1.488430E-11	56.081100
1.488690E-11	52.766400
1.489180E-11	52.019000
1.489840E-11	51.682800
1.491000E-11	52.420200
1.490290E-11	54.601900
1.490220E-11	51.565600
1.489630E-11	53.546900
1.489090E-11	51.289400
1.487670E-11	52.097600
1.487400E-11	54.381500
1.484230E-11	55.670800
1.484290E-11	55.121600
1.482490E-11	57.097500
1.482540E-11	53.392100
1.481560E-11	53.562600
1.483950E-11	53.407100
1.491720E-11	45.617000
1.480620E-11	57.708500
1.485650E-11	56.527800
1.485780E-11	54.390400
1.484120E-11	54.294600
1.484010E-11	55.107300
1.483330E-11	55.489500
1.485450E-11	54.215100
1.484750E-11	57.370100
1.481370E-11	54.386800
1.480130E-11	55.557900
1.479250E-11	56.522600
1.476630E-11	59.855300
1.475780E-11	59.136600
1.372640E-11	455.130000
1.357940E-11	1235.650000
1.360380E-11	551.314000
1.383310E-11	251.684000
1.448710E-11	75.626000
1.445270E-11	78.922900
1.444690E-11	78.938800
1.442870E-11	76.134800
1.457230E-11	54.984400
1.359380E-11	710.145000
1.359710E-11	646.909000
1.358970E-11	595.353000
1.358220E-11	1215.330000
1.357990E-11	597.375000
1.372600E-11	377.699000
1.399620E-11	166.572000
1.400360E-11	180.287000
1.404000E-11	166.258000
1.407460E-11	172.805000
1.407630E-11	174.529000
1.408150E-11	142.165000
1.408600E-11	173.534000
1.408640E-11	150.496000
1.408450E-11	167.952000
1.409060E-11	166.187000
1.408860E-11	148.885000
1.409280E-11	149.546000
1.408870E-11	156.151000
1.407120E-11	158.860000
1.408970E-11	153.113000
1.407800E-11	150.781000
1.409040E-11	154.310000
1.409070E-11	167.803000
1.408330E-11	167.700000
1.407300E-11	154.779000
1.407950E-11	169.336000
1.407440E-11	162.368000
1.408860E-11	163.530000
1.409270E-11	157.195000
1.408470E-11	177.947000
1.409160E-11	163.905000
1.407360E-11	163.729000
1.407290E-11	164.202000
1.409080E-11	169.298000
1.407890E-11	162.812000
1.408960E-11	163.751000
1.408490E-11	171.170000
1.409160E-11	163.417000
1.409000E-11	154.233000
1.408290E-11	174.724000
1.408240E-11	171.238000
1.407600E-11	155.098000
1.408910E-11	144.466000
1.408090E-11	144.638000
1.407870E-11	148.548000
1.407940E-11	165.611000
1.408160E-11	187.734000
1.408020E-11	140.068000
1.407610E-11	164.372000
1.408680E-11	139.878000
1.409030E-11	169.522000
1.407130E-11	153.165000
1.407640E-11	166.886000
1.407800E-11	157.682000
1.407200E-11	153.742000
1.407480E-11	155.952000
1.408140E-11	167.411000
1.407670E-11	156.885000
1.408660E-11	156.385000
1.407930E-11	177.189000
1.408210E-11	172.178000
1.409310E-11	158.783000
1.409160E-11	159.525000
1.408060E-11	139.614000
1.407640E-11	149.305000
1.408990E-11	158.378000
1.408620E-11	137.633000
1.408990E-11	171.431000
1.408880E-11	165.514000
1.408760E-11	142.588000
1.408580E-11	181.231000
1.408780E-11	143.581000
1.408880E-11	146.441000
1.408510E-11	141.219000
1.407330E-11	154.357000
1.408530E-11	148.538000
1.407580E-11	164.701000
1.407470E-11	151.110000
1.407600E-11	162.569000
1.408010E-11	177.289000
1.408420E-11	180.688000
1.407580E-11	160.345000
1.408670E-11	146.451000
1.408290E-11	169.443000
1.408750E-11	148.333000
1.408140E-11	177.140000
1.408370E-11	170.965000
1.409020E-11	156.516000
1.408890E-11	146.170000
1.408760E-11	145.530000
1.409140E-11	160.077000
1.408260E-11	148.282000
1.407660E-11	141.269000
1.408410E-11	148.959000
1.408380E-11	157.599000
1.408080E-11	156.725000
1.406730E-11	161.332000
1.406190E-11	167.154000
1.406700E-11	169.826000
1.408250E-11	166.812000
1.407770E-11	148.096000
1.407620E-11	166.464000
1.408450E-11	164.179000
1.406760E-11	171.017000
1.408190E-11	165.708000
1.409210E-11	159.472000
1.409070E-11	155.279000
1.408620E-11	158.176000
1.408970E-11	162.142000
1.407380E-11	162.152000
1.408240E-11	142.727000
1.408680E-11	158.027000
1.408940E-11	160.773000
1.408000E-11	172.544000
1.407350E-11	156.485000
1.407290E-11	158.497000
1.407060E-11	159.407000
1.407960E-11	149.418000
1.408650E-11	153.159000
1.408380E-11	143.607000
1.408750E-11	169.728000
1.406990E-11	163.029000
1.407150E-11	164.661000
1.408550E-11	171.553000
1.408480E-11	158.306000
1.408670E-11	160.410000
1.408250E-11	175.272000
1.408400E-11	146.815000
1.408840E-11	140.994000
1.408340E-11	157.240000
1.407980E-11	172.652000
1.407290E-11	173.493000
1.407740E-11	151.672000
1.407150E-11	155.747000
1.407720E-11	152.165000
1.408430E-11	147.669000
1.408730E-11	167.740000
1.408160E-11	174.064000
