2019-08-06	¿ÀÀü 9:49
Function	Cp-Q
Auto Range	Enabled
Manual Impedance Range	100	Ohms
Signal Frequency	1000.000000	Hz
Signal Type	Voltage
Signal Level	1.000000
Measurement Time	Medium
Averaging Factor	1.000000
Sampling Rate	5.000000	Hz
Cp	Q
1.547290E-11	23.731600
1.544990E-11	23.412900
1.544510E-11	23.466600
1.543430E-11	23.316300
1.438310E-11	74.207700
1.478950E-11	41.832200
1.487240E-11	63.007000
1.487410E-11	61.669300
1.486950E-11	58.865400
1.485890E-11	60.565400
1.487070E-11	61.121900
1.486380E-11	60.265400
1.485390E-11	59.640500
1.484320E-11	61.912000
1.485300E-11	60.701700
1.484560E-11	59.874500
1.484840E-11	60.891300
1.483650E-11	61.417400
1.484530E-11	62.177100
1.484170E-11	63.126500
1.483740E-11	65.908600
1.483020E-11	61.731900
1.482470E-11	61.920800
1.482330E-11	61.076700
1.483070E-11	61.731000
1.482580E-11	65.511700
1.481820E-11	63.087500
1.481530E-11	63.292200
1.481620E-11	61.677800
1.482040E-11	62.178000
1.481540E-11	60.680300
1.482450E-11	65.505100
1.480840E-11	60.664300
1.480840E-11	61.421800
1.479480E-11	62.257500
1.479510E-11	61.937200
1.480420E-11	64.841000
1.481110E-11	60.943400
1.481640E-11	62.543400
1.480440E-11	61.765400
1.479490E-11	63.520100
1.479820E-11	62.902000
1.479730E-11	62.391200
1.479870E-11	65.137800
1.479090E-11	63.888200
1.479210E-11	64.991900
1.480100E-11	63.024800
1.479000E-11	62.282800
1.478900E-11	63.147800
1.478620E-11	65.388800
1.480260E-11	63.109000
1.479810E-11	63.125400
1.478990E-11	61.978800
1.478900E-11	64.594900
1.480700E-11	63.468400
1.480480E-11	66.279500
1.480130E-11	64.131400
1.480020E-11	67.229900
1.479080E-11	66.549200
1.478010E-11	64.505200
1.479020E-11	64.144100
1.478710E-11	68.162100
1.477760E-11	64.555400
1.478230E-11	67.424600
1.479920E-11	65.974300
1.479450E-11	63.141400
1.478730E-11	64.883600
1.479260E-11	66.202800
1.479270E-11	64.870800
1.479460E-11	65.515600
1.479280E-11	67.516200
1.477930E-11	66.171500
1.480270E-11	65.785300
1.479440E-11	66.771900
1.479550E-11	65.345500
1.480020E-11	65.198800
1.479170E-11	67.048800
1.479450E-11	65.477300
1.480210E-11	65.756600
1.480050E-11	69.988400
1.480000E-11	65.121300
1.478800E-11	68.286100
1.479400E-11	65.899300
1.479640E-11	65.863900
1.479450E-11	65.824000
1.480380E-11	68.916500
1.479780E-11	66.828900
1.480100E-11	66.972000
1.479310E-11	66.802800
1.478280E-11	66.756000
1.478240E-11	68.697000
1.479410E-11	66.102000
1.478820E-11	68.629100
1.478770E-11	66.931000
1.477900E-11	67.753700
1.478070E-11	67.034800
1.478160E-11	67.234600
1.478200E-11	71.515300
1.477090E-11	68.239300
1.476220E-11	69.662200
1.477140E-11	68.890900
1.475730E-11	69.292600
1.474890E-11	67.835400
1.475080E-11	69.158500
1.474560E-11	65.288500
1.475620E-11	68.101300
1.465650E-11	72.043000
1.472430E-11	71.776500
1.408440E-11	132.375000
1.430750E-11	130.168000
1.422370E-11	114.798000
1.443800E-11	89.177200
1.423700E-11	138.246000
1.417390E-11	138.924000
1.413970E-11	132.421000
1.414520E-11	124.005000
1.424200E-11	121.663000
1.435700E-11	94.038100
1.429360E-11	107.378000
1.409700E-11	132.093000
1.410280E-11	134.592000
1.411210E-11	134.167000
1.435690E-11	91.590800
1.436680E-11	94.257700
1.436640E-11	90.691300
1.438340E-11	96.340200
1.438780E-11	97.277700
1.438120E-11	94.939000
1.404950E-11	144.186000
1.399900E-11	188.255000
1.420980E-11	126.475000
1.449350E-11	76.318800
1.471870E-11	57.825500
1.465670E-11	62.349500
1.472470E-11	63.321400
1.474480E-11	62.298700
1.460430E-11	76.360600
1.459390E-11	74.402300
1.420840E-11	126.433000
1.410470E-11	141.163000
1.457090E-11	69.591900
1.458400E-11	67.951100
1.458370E-11	66.182500
1.455930E-11	88.327600
1.477440E-11	57.047900
1.474800E-11	56.226900
1.467930E-11	61.172600
1.409180E-11	119.327000
1.415530E-11	118.122000
1.414270E-11	132.887000
1.412410E-11	128.812000
1.426470E-11	93.117500
1.420050E-11	128.098000
1.420310E-11	122.520000
1.420820E-11	124.625000
1.421570E-11	111.764000
1.421640E-11	130.624000
1.421270E-11	119.729000
1.419910E-11	124.144000
1.418910E-11	130.467000
1.419510E-11	120.056000
1.419750E-11	120.167000
1.419820E-11	122.341000
1.419400E-11	125.988000
1.418440E-11	125.573000
1.418790E-11	114.019000
1.419090E-11	112.851000
1.418540E-11	121.081000
1.418290E-11	119.790000
1.417990E-11	122.941000
1.418900E-11	115.057000
1.418450E-11	115.715000
1.419890E-11	127.167000
1.420170E-11	114.185000
1.419390E-11	115.251000
1.417720E-11	119.277000
1.417510E-11	112.690000
1.416090E-11	121.054000
1.413530E-11	121.255000
1.418480E-11	105.941000
1.423180E-11	115.288000
1.422200E-11	108.994000
1.420490E-11	102.339000
1.419420E-11	106.755000
1.419550E-11	110.431000
1.419580E-11	110.762000
1.418830E-11	108.662000
1.420720E-11	106.594000
1.422500E-11	113.206000
1.424230E-11	111.532000
1.420990E-11	104.705000
1.420570E-11	111.894000
1.420040E-11	113.113000
1.419740E-11	111.966000
1.421640E-11	104.276000
1.423740E-11	102.710000
1.426800E-11	103.421000
1.426480E-11	101.298000
1.424580E-11	108.874000
1.423930E-11	102.608000
1.423260E-11	100.869000
1.426370E-11	100.271000
1.427380E-11	95.411100
1.426600E-11	96.379800
1.426190E-11	104.272000
1.423610E-11	101.035000
1.429480E-11	90.137200
1.431020E-11	91.910900
1.430630E-11	95.354200
1.429970E-11	91.932400
1.427680E-11	89.259500
1.426950E-11	95.880700
1.432700E-11	91.493100
1.432850E-11	93.694800
1.432050E-11	88.394800
1.430150E-11	90.816700
1.429150E-11	91.632100
1.428740E-11	91.807000
1.427460E-11	92.792000
1.427270E-11	89.366900
1.426740E-11	98.850800
1.426320E-11	93.512400
1.427190E-11	91.839500
1.418380E-11	99.938400
1.431410E-11	72.082200
1.441000E-11	80.199900
1.441050E-11	73.949000
1.437110E-11	78.040100
1.440410E-11	78.165400
1.442850E-11	75.913000
1.438860E-11	75.199600
1.447730E-11	66.177500
1.435410E-11	82.465500
1.433340E-11	91.686700
1.418250E-11	102.479000
1.414220E-11	93.965700
1.419890E-11	90.492300
1.429920E-11	88.152600
1.431730E-11	99.115200
1.446750E-11	66.334300
1.443890E-11	71.935700
1.444610E-11	73.087100
1.445570E-11	74.280600
1.447790E-11	70.135800
1.449530E-11	64.668600
1.449810E-11	65.755000
1.451280E-11	65.237800
1.451480E-11	63.934400
1.451410E-11	63.291800
1.450710E-11	62.869600
1.451420E-11	61.441300
1.441150E-11	80.956000
1.435840E-11	84.481400
1.435320E-11	85.964500
1.436570E-11	81.681900
1.438880E-11	82.562000
1.439880E-11	84.008300
1.436850E-11	83.108600
1.435100E-11	84.466800
1.435690E-11	79.148300
1.434590E-11	83.549100
1.433760E-11	80.868500
1.429880E-11	88.065100
1.431780E-11	90.183800
1.434680E-11	90.237100
1.434430E-11	87.751500
1.433510E-11	96.324800
1.432760E-11	94.229200
1.433610E-11	89.906200
1.433630E-11	91.942900
1.434250E-11	89.207600
1.434630E-11	92.692100
1.433070E-11	87.982700
1.434050E-11	87.974200
1.433170E-11	85.785900
1.435180E-11	85.000400
1.434860E-11	91.410300
1.434150E-11	87.181700
1.434540E-11	85.048000
1.434570E-11	86.461300
1.434570E-11	91.466000
1.434600E-11	93.328100
1.434040E-11	87.522300
1.434440E-11	86.089000
1.428380E-11	90.092200
1.428950E-11	86.498400
1.429610E-11	85.704100
1.437770E-11	70.169600
1.432740E-11	78.461400
1.429100E-11	77.442800
1.441360E-11	76.428100
1.440490E-11	78.260800
1.439050E-11	76.106600
1.438130E-11	80.471000
1.433210E-11	94.166000
1.451630E-11	63.998800
1.452550E-11	64.260500
1.432890E-11	77.426000
1.441510E-11	74.512500
1.448540E-11	65.859400
1.442020E-11	72.469600
1.445650E-11	67.387000
1.451770E-11	63.273500
1.447290E-11	73.207500
1.452220E-11	68.734000
1.454510E-11	64.008200
1.455070E-11	64.895100
1.455600E-11	62.093500
1.455270E-11	62.348600
1.446890E-11	73.766000
1.444760E-11	73.479600
1.443690E-11	74.533200
1.441740E-11	76.443600
1.440430E-11	72.750900
1.438860E-11	75.862600
1.439360E-11	74.686600
1.437230E-11	79.741900
1.437380E-11	79.309400
1.437070E-11	80.684500
1.439110E-11	78.579000
1.437390E-11	84.497500
1.435600E-11	83.322800
1.435930E-11	81.938300
1.435090E-11	80.463400
1.437620E-11	77.509200
1.437350E-11	83.292500
1.436730E-11	80.170100
1.437810E-11	84.255400
1.437140E-11	82.064500
1.436460E-11	82.190800
1.436610E-11	88.533700
1.435460E-11	84.555700
1.446080E-11	70.151400
1.447110E-11	66.245200
1.450530E-11	65.468900
1.452310E-11	64.512800
1.453100E-11	61.997400
1.453760E-11	63.186000
1.453350E-11	67.108300
1.453120E-11	67.295000
1.454150E-11	67.283900
1.453940E-11	64.831200
1.455620E-11	67.513100
1.455410E-11	66.491200
1.455450E-11	64.019300
1.457160E-11	66.136900
1.456540E-11	62.834600
1.457820E-11	64.485800
1.456860E-11	67.454900
1.455970E-11	63.911400
1.457250E-11	65.942300
1.456750E-11	62.064900
1.456410E-11	64.491500
1.456630E-11	67.283400
1.457660E-11	64.384300
1.457660E-11	64.162500
1.456520E-11	64.548800
1.456720E-11	63.735000
1.456990E-11	66.854000
1.457560E-11	64.066600
1.455850E-11	65.941700
1.454140E-11	64.898700
1.456040E-11	63.303900
1.457790E-11	64.551100
1.458670E-11	62.757000
1.458680E-11	63.584500
1.457660E-11	63.449700
1.457750E-11	60.639500
1.458620E-11	62.665000
1.459320E-11	61.512700
1.457570E-11	63.022100
1.458330E-11	62.943700
1.458590E-11	64.699800
1.459210E-11	64.267600
1.458820E-11	63.942600
1.458210E-11	62.833100
1.459010E-11	62.202400
1.459650E-11	63.655200
1.459030E-11	61.140700
1.458930E-11	60.707600
1.458640E-11	61.910800
1.459770E-11	63.370000
1.459930E-11	64.098800
1.459880E-11	63.194300
1.459240E-11	63.263700
1.459960E-11	61.690100
1.459380E-11	62.824300
1.460220E-11	62.220000
1.459230E-11	60.059700
1.459260E-11	62.218700
1.459480E-11	61.223800
1.459830E-11	63.716800
1.459200E-11	60.240200
1.459590E-11	60.668700
1.457690E-11	63.569900
1.459330E-11	61.916700
1.459660E-11	59.331200
1.460190E-11	59.528700
1.459160E-11	60.314400
1.459010E-11	61.596200
1.459730E-11	62.596500
1.459420E-11	61.076100
1.460040E-11	59.850500
1.460220E-11	64.936800
1.460310E-11	61.179600
1.459500E-11	62.265800
1.460270E-11	58.998900
1.460150E-11	60.509200
1.459940E-11	59.142700
1.459610E-11	60.030400
1.460190E-11	60.864800
1.460440E-11	61.143500
1.460230E-11	59.202600
1.460020E-11	59.258700
1.459480E-11	62.470500
1.459460E-11	60.415400
1.460800E-11	62.145200
1.459900E-11	60.734600
1.459890E-11	59.793600
1.460550E-11	60.728200
1.459560E-11	60.084900
1.459380E-11	61.592700
1.460190E-11	59.839200
1.460150E-11	59.691400
1.459900E-11	64.329500
1.460360E-11	63.435200
1.460890E-11	62.519700
1.460390E-11	60.337200
1.459620E-11	64.210900
1.459630E-11	64.629100
1.460280E-11	62.719600
1.460640E-11	61.513000
1.459920E-11	63.064100
1.459310E-11	61.894700
1.459430E-11	60.099400
1.460420E-11	63.220400
1.460220E-11	60.363500
1.460410E-11	63.588100
1.459210E-11	62.546700
1.459510E-11	58.982100
1.460500E-11	62.664400
1.460630E-11	61.311600
1.459580E-11	61.268900
1.458980E-11	61.155900
1.460010E-11	63.115600
1.460030E-11	60.757700
1.459660E-11	62.103000
1.459290E-11	60.702600
1.459060E-11	63.116600
1.459770E-11	64.918800
1.459590E-11	60.187000
1.459480E-11	59.424000
1.460320E-11	60.520900
1.460080E-11	60.172000
1.459360E-11	63.135900
1.458570E-11	62.411300
1.459160E-11	60.642800
1.460140E-11	63.421900
1.458960E-11	61.269200
1.459210E-11	63.460900
1.460190E-11	59.511600
1.459790E-11	59.399900
1.459320E-11	59.720800
1.459450E-11	59.932800
1.459970E-11	59.597300
1.460460E-11	60.188000
1.459810E-11	61.997400
1.459260E-11	59.854600
1.458920E-11	62.860700
1.458970E-11	60.848000
1.460970E-11	60.157500
1.459840E-11	61.131700
1.459420E-11	60.270900
1.459660E-11	60.465700
1.460260E-11	61.802800
1.459420E-11	61.210200
1.459440E-11	60.335100
1.459560E-11	59.663000
1.459900E-11	63.663500
1.459380E-11	59.888900
1.460560E-11	61.362800
1.460170E-11	58.537400
1.459960E-11	63.771700
1.459740E-11	62.515400
1.460670E-11	63.702400
1.460060E-11	61.324100
1.459780E-11	60.446800
1.460030E-11	60.722800
1.459640E-11	59.552700
1.460620E-11	62.824900
1.460670E-11	60.640300
1.460290E-11	62.506800
1.458910E-11	63.318800
1.459880E-11	59.235300
1.460350E-11	63.463400
1.460790E-11	61.107900
1.458990E-11	62.207400
1.459450E-11	62.458400
1.459710E-11	63.690400
1.460470E-11	61.992800
1.459470E-11	62.093100
1.459160E-11	62.068700
1.459410E-11	61.421000
1.459550E-11	63.390600
1.459470E-11	59.995300
1.459530E-11	60.882900
1.459940E-11	59.936900
1.460030E-11	61.505600
1.459860E-11	63.408800
1.459910E-11	60.406200
1.459560E-11	60.590100
1.460820E-11	61.333600
1.461410E-11	62.438000
1.459590E-11	61.871500
1.461160E-11	59.256700
1.459860E-11	60.290000
1.460040E-11	59.918600
1.460650E-11	62.606400
1.460580E-11	58.903200
1.460990E-11	59.369400
1.459530E-11	60.612900
1.460180E-11	61.247600
1.461140E-11	59.685600
1.461450E-11	62.001800
1.461100E-11	60.281000
1.460290E-11	59.144100
1.460050E-11	61.406500
1.460090E-11	59.245300
1.461310E-11	59.632600
1.460810E-11	63.334100
1.460410E-11	59.103200
1.460230E-11	61.303600
1.460740E-11	61.787400
1.461120E-11	60.892800
1.460210E-11	59.122700
1.460260E-11	58.856000
1.460210E-11	62.426100
1.459510E-11	62.715800
1.460030E-11	62.052900
1.459120E-11	59.450200
1.458380E-11	61.690000
1.459040E-11	61.025300
1.459720E-11	62.306800
1.460330E-11	61.359100
1.459380E-11	59.599600
1.460330E-11	60.824600
1.459490E-11	63.129900
1.458080E-11	60.491000
1.458960E-11	62.360900
1.459220E-11	59.831600
1.459650E-11	64.401100
1.459560E-11	62.679000
1.459830E-11	62.219200
1.459260E-11	60.317300
1.459510E-11	63.305600
1.444710E-11	-241.980000
1.458780E-11	66.967500
1.460150E-11	63.937700
1.460610E-11	61.478100
1.462040E-11	60.213600
1.461400E-11	59.145600
1.463740E-11	56.707100
1.464070E-11	55.426100
1.463610E-11	55.742800
1.463880E-11	56.369400
1.463490E-11	54.902900
1.464400E-11	55.968700
1.464520E-11	54.088000
1.464110E-11	56.994700
1.464740E-11	56.122100
1.465010E-11	56.026800
1.464750E-11	54.921300
1.464670E-11	57.362200
1.466380E-11	57.571300
1.465700E-11	55.195300
1.465600E-11	55.703300
1.465240E-11	57.018000
1.464690E-11	57.351500
1.464700E-11	55.410100
1.465790E-11	55.963900
1.465570E-11	54.798700
1.466430E-11	54.550700
1.465220E-11	57.127000
1.464810E-11	54.186300
1.466480E-11	54.736300
1.465660E-11	53.786500
1.465350E-11	55.787100
1.465450E-11	53.993800
1.465980E-11	54.651400
1.465290E-11	55.957900
1.466980E-11	56.626300
1.466210E-11	56.509500
1.466230E-11	54.120200
1.467060E-11	53.282600
1.466370E-11	56.745900
1.466200E-11	56.321800
1.466110E-11	53.018500
1.467090E-11	56.419100
1.467640E-11	53.383400
1.468130E-11	54.829500
1.467430E-11	56.053300
1.466840E-11	51.871200
1.467880E-11	54.219600
1.468110E-11	52.422400
1.467140E-11	56.217500
1.467480E-11	56.291100
1.468150E-11	55.019500
1.468320E-11	54.060400
1.467940E-11	55.636300
1.467430E-11	55.623200
1.467790E-11	54.060400
1.468410E-11	53.446300
1.467690E-11	55.122900
1.467820E-11	55.177400
1.467200E-11	54.335500
1.467980E-11	54.470100
1.468790E-11	53.499700
1.468340E-11	54.366200
1.468030E-11	54.648000
1.467390E-11	52.296800
1.468260E-11	53.664600
1.468440E-11	52.657300
1.467390E-11	54.648100
1.468410E-11	53.967600
1.468670E-11	54.516900
1.468040E-11	52.027800
1.467310E-11	54.797500
1.467400E-11	54.239900
1.468580E-11	54.632100
1.468080E-11	53.143700
1.467400E-11	55.130900
1.466880E-11	54.778300
1.466360E-11	52.688100
1.468080E-11	53.147500
1.468230E-11	53.302500
1.467740E-11	52.879400
1.467370E-11	54.713200
1.466940E-11	52.420300
1.468300E-11	53.497300
1.467520E-11	52.541900
1.466730E-11	53.360600
1.467230E-11	54.768600
1.468050E-11	53.195300
1.467010E-11	52.699400
1.467100E-11	54.515200
1.467030E-11	53.570100
1.467520E-11	52.795400
1.468480E-11	53.110800
1.468290E-11	52.271700
1.467270E-11	53.699900
1.467450E-11	53.933600
1.467200E-11	53.115500
1.468490E-11	52.755500
1.467930E-11	55.654800
1.466790E-11	54.012400
1.467850E-11	51.627900
1.468440E-11	54.591900
1.468990E-11	55.646000
1.468510E-11	53.530900
1.469280E-11	52.923900
1.470510E-11	52.683000
1.471560E-11	51.607700
1.471340E-11	50.058200
1.471140E-11	49.541800
1.471990E-11	50.381100
1.472860E-11	50.359300
1.471930E-11	48.564100
1.472360E-11	47.813700
1.471920E-11	49.887700
1.472500E-11	49.933300
1.473290E-11	49.867200
1.473210E-11	49.552300
1.472970E-11	49.142400
1.473940E-11	48.606900
1.473120E-11	49.363400
1.474220E-11	49.427400
1.472970E-11	47.334400
1.473180E-11	48.519700
1.473470E-11	49.641700
1.473980E-11	49.087600
1.472750E-11	48.184800
1.473230E-11	47.915100
1.474050E-11	49.606700
1.473820E-11	48.916300
1.473820E-11	48.502500
1.473070E-11	48.050900
1.473950E-11	48.346500
1.474250E-11	48.947500
1.474650E-11	49.405700
1.475040E-11	50.323500
1.474450E-11	48.264900
1.475850E-11	47.874500
1.474690E-11	49.265700
1.475300E-11	48.649100
1.475250E-11	47.873300
1.474930E-11	47.919600
1.475600E-11	48.715000
1.475970E-11	47.626400
1.475270E-11	47.262600
1.474980E-11	47.700800
1.475210E-11	47.506100
1.475630E-11	49.778900
1.475890E-11	46.290000
1.475600E-11	47.983400
1.475350E-11	47.738300
1.475000E-11	48.487600
1.475770E-11	49.344500
1.475580E-11	48.342500
1.475920E-11	46.543500
1.476950E-11	48.734000
1.475280E-11	47.680800
1.476100E-11	49.570900
1.475940E-11	46.834800
1.475620E-11	47.529600
1.475220E-11	48.524500
1.476630E-11	48.888600
1.476240E-11	47.863600
1.476450E-11	46.809700
1.476270E-11	46.293100
1.476310E-11	48.562000
1.476870E-11	46.536900
1.477500E-11	46.949500
1.477990E-11	47.087900
1.476170E-11	47.664500
1.477110E-11	48.638100
1.477170E-11	47.056800
1.477430E-11	47.486000
1.478690E-11	47.800900
1.477580E-11	47.326200
1.478230E-11	48.759300
1.477610E-11	46.371400
1.477290E-11	47.204800
1.477640E-11	47.247200
1.478530E-11	45.694800
1.477330E-11	46.426700
1.477840E-11	45.549100
1.477830E-11	47.344600
1.478520E-11	47.996500
1.479260E-11	46.945300
1.478410E-11	48.337400
1.478140E-11	46.571900
1.478440E-11	48.300200
1.479270E-11	47.735600
1.478970E-11	47.223300
1.478350E-11	47.542800
1.478950E-11	45.856900
1.479200E-11	47.641800
1.478930E-11	46.515200
1.478280E-11	45.733000
1.478250E-11	47.877800
1.478940E-11	47.620600
1.479560E-11	47.426700
1.477930E-11	46.639700
1.478350E-11	45.995900
1.478950E-11	47.563000
1.479370E-11	46.679000
1.479340E-11	47.540000
1.479940E-11	47.729000
1.478780E-11	48.742600
1.481090E-11	47.413900
1.482040E-11	44.130200
1.483050E-11	45.302500
1.481600E-11	45.367200
1.482170E-11	43.235900
1.483140E-11	45.862800
1.483080E-11	43.321800
1.484110E-11	44.857900
1.483230E-11	44.187800
1.484270E-11	44.313100
1.482910E-11	44.602900
1.483690E-11	45.092800
1.483510E-11	42.951600
1.483050E-11	44.142200
1.483970E-11	43.081800
1.483510E-11	45.407800
1.483250E-11	45.318800
1.483190E-11	44.865300
1.484490E-11	43.589000
1.483930E-11	43.038100
1.484990E-11	43.407800
1.483500E-11	43.650300
1.483160E-11	43.479100
1.484610E-11	42.730200
1.483980E-11	43.245200
1.484950E-11	44.162200
1.485170E-11	43.875200
1.484790E-11	42.755000
1.485030E-11	44.684400
1.484530E-11	43.333200
1.485730E-11	43.762400
1.484830E-11	44.985800
1.484370E-11	42.954100
1.485690E-11	43.837700
1.485680E-11	43.772400
1.484580E-11	45.417000
1.484720E-11	42.814500
1.484130E-11	43.499100
1.484590E-11	43.772400
1.485120E-11	43.514000
1.485100E-11	44.921000
1.484170E-11	44.033600
1.484170E-11	44.473300
1.485560E-11	42.987100
1.484730E-11	43.722400
1.484370E-11	43.345100
1.484610E-11	44.139200
1.484550E-11	42.573400
1.484900E-11	42.719900
1.484360E-11	44.589500
1.483980E-11	44.876000
1.484590E-11	43.657100
1.483790E-11	43.766400
1.484250E-11	42.960400
1.484290E-11	44.441200
1.484140E-11	44.962200
1.484430E-11	44.820200
1.483790E-11	43.840500
1.484970E-11	43.957000
1.484520E-11	44.371000
1.484900E-11	44.446500
1.484180E-11	42.749200
1.484990E-11	44.079100
1.484150E-11	44.633800
1.484560E-11	45.002400
1.483280E-11	43.991100
1.483410E-11	44.088700
1.483910E-11	45.091100
1.484030E-11	44.167300
1.483640E-11	44.489900
1.483150E-11	43.749800
1.484040E-11	43.201200
1.484290E-11	42.974800
1.484780E-11	43.338200
1.485990E-11	43.865600
1.484420E-11	43.726300
1.485110E-11	42.854400
1.486040E-11	43.937100
1.485540E-11	42.848000
1.485020E-11	43.512000
1.486020E-11	44.378100
1.485860E-11	43.078400
1.487090E-11	43.406900
1.486030E-11	44.116500
1.486200E-11	44.256800
1.486890E-11	43.716600
1.485910E-11	42.742600
1.486260E-11	44.680800
1.486810E-11	43.961200
1.485620E-11	44.000000
1.486770E-11	42.544300
1.485850E-11	42.392600
1.485930E-11	41.725600
1.486810E-11	43.735200
1.485200E-11	43.714100
1.486230E-11	42.008100
1.485480E-11	43.203300
1.486850E-11	44.738300
1.487860E-11	43.775600
1.486510E-11	43.401200
1.487240E-11	42.511000
1.489210E-11	41.192700
1.489340E-11	40.513900
1.489170E-11	40.772200
1.488180E-11	40.967000
1.489790E-11	40.916400
1.490790E-11	41.425100
1.490520E-11	41.789600
1.489490E-11	41.558500
1.488860E-11	42.043900
1.488780E-11	41.870400
1.489500E-11	40.691500
1.491240E-11	42.068100
1.490140E-11	41.856500
1.491220E-11	43.976200
1.489990E-11	40.288600
1.490020E-11	40.616900
1.489510E-11	41.830100
1.490170E-11	42.059700
1.489710E-11	41.321600
1.489670E-11	40.613600
1.490700E-11	41.852000
1.490450E-11	42.213900
1.490410E-11	41.031600
1.490440E-11	40.550500
1.490320E-11	41.019500
1.490270E-11	41.689300
1.491520E-11	41.641600
1.490700E-11	41.465900
1.490400E-11	41.762000
1.491020E-11	40.517600
1.491510E-11	41.395100
1.491750E-11	41.506600
1.490380E-11	40.891300
1.491700E-11	41.781200
1.491550E-11	42.258200
1.490120E-11	40.787800
1.491020E-11	42.554000
1.490560E-11	41.634400
1.491620E-11	42.105700
1.491550E-11	41.115400
1.490970E-11	40.315000
1.490270E-11	41.926900
1.490550E-11	40.342900
1.491890E-11	40.760900
1.491270E-11	40.716800
1.491600E-11	41.008300
1.490960E-11	40.133100
1.490280E-11	41.492000
1.491680E-11	40.434800
1.490570E-11	40.691800
1.491000E-11	42.262200
1.492000E-11	41.042200
1.491320E-11	40.898900
1.490680E-11	40.015000
1.491820E-11	41.697000
1.491420E-11	41.527500
1.491760E-11	40.293100
1.490450E-11	40.621000
1.491480E-11	41.565400
1.491210E-11	42.327000
1.491040E-11	42.244700
1.490560E-11	41.472000
1.490040E-11	41.342000
1.490410E-11	40.476100
1.491720E-11	41.215100
1.490420E-11	42.545300
1.490550E-11	40.419000
1.489810E-11	41.828500
1.490780E-11	41.607900
1.491010E-11	40.635300
1.489670E-11	40.821700
1.490740E-11	41.527400
1.490220E-11	41.133600
1.490320E-11	40.728600
1.490590E-11	40.888200
1.489340E-11	40.678300
1.489840E-11	42.550100
1.490130E-11	40.940000
1.490040E-11	41.118900
1.489700E-11	41.034300
1.488910E-11	41.799800
1.489280E-11	40.951700
1.490370E-11	41.066800
1.490140E-11	42.753400
1.489420E-11	41.464800
1.489530E-11	42.780400
1.489800E-11	40.547100
1.489930E-11	41.948700
1.488930E-11	41.111700
1.489130E-11	41.892300
1.489330E-11	40.846000
1.489640E-11	40.268400
1.489440E-11	40.783600
1.488690E-11	41.369400
1.489620E-11	40.993100
1.508050E-11	9.486640
1.489680E-11	41.947800
1.490650E-11	43.017100
1.490540E-11	42.478500
1.491450E-11	41.269500
1.492000E-11	41.869400
1.492820E-11	40.875200
1.492550E-11	41.255000
1.492590E-11	41.987400
1.492170E-11	39.553800
1.491950E-11	40.522100
1.491680E-11	40.713400
1.492790E-11	40.835800
1.489610E-11	38.659900
1.492180E-11	39.411500
1.492300E-11	40.650200
1.493000E-11	41.011500
1.492730E-11	40.349400
1.492370E-11	39.752500
1.492810E-11	40.153000
1.492730E-11	41.298600
1.492960E-11	41.220000
1.493260E-11	41.609200
1.492100E-11	40.120100
1.493360E-11	40.074300
1.493280E-11	41.751900
1.493240E-11	40.763900
1.492910E-11	39.457000
1.492440E-11	40.822500
1.492840E-11	40.690300
1.492930E-11	40.210200
1.492490E-11	40.311700
1.493110E-11	40.041100
1.492700E-11	41.518300
1.493450E-11	40.757600
1.492610E-11	39.991100
1.492990E-11	40.503200
1.493040E-11	41.027000
1.493210E-11	41.695600
1.493550E-11	41.019600
1.492960E-11	41.845300
1.492280E-11	39.993600
1.494180E-11	40.247200
1.492530E-11	41.208400
1.493920E-11	40.830500
1.491940E-11	40.492600
1.492300E-11	41.124500
1.492640E-11	41.665500
1.492230E-11	41.625300
1.492240E-11	40.712400
1.492090E-11	40.237200
1.491870E-11	40.986800
1.492330E-11	41.264900
1.491970E-11	39.998400
1.493230E-11	39.909100
1.493750E-11	41.375100
1.493370E-11	40.415600
1.492230E-11	41.699000
1.492190E-11	40.852700
1.492940E-11	41.897600
1.493020E-11	41.198400
1.493600E-11	40.162300
1.492050E-11	41.623900
1.492580E-11	39.748200
1.491500E-11	40.898300
1.491820E-11	40.766400
1.492360E-11	41.484800
1.492130E-11	39.811900
1.492460E-11	39.690600
1.491420E-11	41.117500
1.491250E-11	40.660900
1.492020E-11	39.871400
1.492450E-11	39.572900
1.492810E-11	40.317700
1.492900E-11	41.336100
1.491780E-11	40.858300
1.491590E-11	40.567500
1.492660E-11	39.646900
1.492680E-11	40.888600
1.492450E-11	40.750300
1.491710E-11	41.014500
1.492530E-11	41.206100
1.492660E-11	39.832000
1.491610E-11	39.747200
1.491530E-11	39.639200
1.493240E-11	40.238000
1.492390E-11	40.514800
1.492820E-11	39.519500
1.491490E-11	40.250300
1.491550E-11	40.785900
1.491730E-11	40.317200
1.492600E-11	40.391100
1.492340E-11	39.911000
1.491210E-11	39.806200
1.492590E-11	39.761700
1.491790E-11	39.991700
1.491850E-11	41.229500
1.492430E-11	39.949800
1.491580E-11	39.725700
1.492670E-11	41.092300
1.493030E-11	40.776700
1.484930E-11	34.782900
1.492540E-11	42.604700
1.492970E-11	40.798800
1.493200E-11	41.141900
1.493680E-11	41.217600
1.494110E-11	39.018300
1.493910E-11	40.411000
1.494060E-11	40.408000
1.493920E-11	39.984100
1.494380E-11	39.969700
1.494900E-11	39.009300
1.494790E-11	39.650500
1.494180E-11	40.601700
1.493580E-11	39.248300
1.493500E-11	39.616400
1.494480E-11	38.618100
1.493760E-11	40.668800
1.494580E-11	39.752100
1.495420E-11	39.816800
1.495340E-11	40.000400
1.494970E-11	40.629700
1.495560E-11	39.801000
1.496110E-11	39.574200
1.495960E-11	39.780000
1.495410E-11	40.025000
1.495400E-11	40.532100
1.495100E-11	39.705900
1.496770E-11	39.674600
1.496480E-11	39.414500
1.497110E-11	39.157000
1.496330E-11	40.734600
1.495740E-11	39.321600
1.496960E-11	40.058700
1.496740E-11	39.276400
1.496260E-11	39.655200
1.496580E-11	40.913900
1.496750E-11	39.882600
1.497650E-11	39.981100
1.496220E-11	39.981000
1.496670E-11	40.122400
1.496550E-11	40.749400
1.496540E-11	39.384700
1.495260E-11	40.323000
1.495240E-11	39.149100
1.496310E-11	40.145800
1.496740E-11	40.338200
1.496810E-11	39.589400
1.496440E-11	40.336000
1.496490E-11	38.787300
1.496390E-11	38.742900
1.496720E-11	40.084800
1.497310E-11	39.627600
1.495010E-11	39.935900
1.495270E-11	39.725000
1.496140E-11	40.379600
1.496660E-11	39.559300
1.495700E-11	40.588300
1.495230E-11	39.738300
1.495670E-11	39.984700
1.496060E-11	40.784800
1.496410E-11	39.280000
1.495100E-11	40.276100
1.495010E-11	39.747200
1.495820E-11	39.497600
1.496130E-11	40.527000
1.496120E-11	39.684300
1.495380E-11	39.810200
1.496790E-11	39.163500
1.496780E-11	39.058100
1.496110E-11	40.262900
1.495550E-11	38.414100
1.495350E-11	39.706000
1.495270E-11	39.566600
1.495500E-11	39.911600
1.495330E-11	38.688700
1.495850E-11	38.776900
1.495160E-11	39.607200
1.495740E-11	39.750100
1.495540E-11	38.568100
1.495770E-11	38.300100
1.496370E-11	38.773000
1.495500E-11	38.905200
1.495620E-11	39.692700
1.495880E-11	38.691200
1.497010E-11	38.583900
1.496830E-11	39.987800
1.495590E-11	38.442600
1.495940E-11	39.839300
1.495380E-11	38.777100
1.497060E-11	38.313000
1.496040E-11	38.614600
1.495920E-11	38.914000
1.497220E-11	38.824600
1.496920E-11	38.564900
1.497720E-11	38.889500
1.496300E-11	38.237300
1.497320E-11	39.327300
1.497440E-11	39.850800
1.496400E-11	39.647200
1.457920E-11	18.116600
1.497290E-11	39.201800
1.498190E-11	38.258000
1.499060E-11	39.135400
1.498080E-11	37.867000
1.499010E-11	37.173200
1.498790E-11	36.744200
1.499210E-11	38.371300
1.499680E-11	38.150300
1.500230E-11	37.760300
1.499040E-11	37.386700
1.499870E-11	38.577300
1.499440E-11	38.681900
1.499710E-11	38.082700
1.499770E-11	37.527100
1.499420E-11	38.314600
1.500240E-11	38.064600
1.499510E-11	38.500800
1.499600E-11	37.768900
1.500620E-11	37.555900
1.500690E-11	37.257700
1.500700E-11	37.809300
1.500090E-11	37.318800
1.500700E-11	37.096200
1.500770E-11	37.276700
1.499980E-11	37.412900
1.501040E-11	37.856800
1.501060E-11	37.509200
1.501410E-11	37.239400
1.500370E-11	38.581100
1.500250E-11	37.918600
1.501320E-11	38.053300
1.500750E-11	37.612200
1.500000E-11	37.739600
1.500170E-11	37.571300
1.500580E-11	36.435600
1.501080E-11	38.532600
1.501460E-11	36.914100
1.501700E-11	38.166900
1.500210E-11	37.583900
1.500840E-11	36.682700
1.501480E-11	38.252700
1.501620E-11	37.063000
1.500700E-11	37.854300
1.500140E-11	37.561200
1.501510E-11	37.800000
1.501750E-11	38.068900
1.500920E-11	37.623300
1.501150E-11	38.000200
1.500850E-11	36.535900
1.501980E-11	37.928900
1.500450E-11	37.626400
1.500800E-11	37.097900
1.500730E-11	38.239300
1.500440E-11	36.437000
1.502150E-11	37.739600
1.501360E-11	37.920800
1.501950E-11	36.572400
1.501660E-11	36.212600
1.501830E-11	37.887900
1.502150E-11	37.128800
1.500470E-11	37.433600
1.500510E-11	37.637600
1.501910E-11	38.256700
1.501850E-11	37.656000
1.501450E-11	38.219600
1.500670E-11	37.754000
1.501830E-11	37.277700
1.501830E-11	37.863400
1.501070E-11	37.695400
1.501470E-11	37.746400
1.500810E-11	37.997300
1.501630E-11	37.480400
1.501990E-11	37.464000
1.501710E-11	37.414500
1.501080E-11	37.980600
1.500860E-11	36.796100
1.500700E-11	36.887500
1.501490E-11	36.526600
1.500400E-11	37.571700
1.501550E-11	37.492300
1.501890E-11	36.948000
1.501130E-11	36.091900
1.501410E-11	37.950700
1.501340E-11	37.674700
1.502080E-11	37.277300
1.501540E-11	36.968600
1.502310E-11	37.225400
1.501750E-11	37.342200
1.501130E-11	37.592000
1.502310E-11	36.515800
1.501190E-11	36.494300
1.501560E-11	36.348200
1.500790E-11	36.759000
1.501260E-11	37.589700
1.501190E-11	37.323300
1.500860E-11	36.763300
1.501740E-11	37.697400
1.502390E-11	36.935800
1.501300E-11	36.353700
1.586310E-11	278.161000
1.502730E-11	37.677600
1.502560E-11	37.297900
1.503210E-11	36.093600
1.502050E-11	36.261100
1.503560E-11	35.984800
1.503790E-11	36.350200
1.503290E-11	37.030200
1.502700E-11	36.610700
1.502100E-11	36.580400
1.501930E-11	35.704100
1.502840E-11	35.769700
1.503240E-11	37.003400
1.502290E-11	35.387700
1.502530E-11	37.329100
1.503120E-11	36.010900
1.503420E-11	36.431400
1.502470E-11	36.497800
1.502240E-11	36.438500
1.502730E-11	35.956800
1.502420E-11	35.994600
1.502070E-11	36.634200
1.502660E-11	37.070500
1.504330E-11	36.296300
1.502970E-11	35.923600
1.502840E-11	38.083000
1.503440E-11	37.129700
1.503750E-11	36.991800
1.503620E-11	36.923300
1.502820E-11	36.050700
1.504360E-11	35.767700
1.504360E-11	36.405600
1.504780E-11	36.241800
1.504330E-11	36.592100
1.503780E-11	36.807700
1.504150E-11	37.063500
1.504570E-11	36.163500
1.504190E-11	36.553200
1.503920E-11	37.223800
1.504880E-11	36.611800
1.505660E-11	36.344400
1.504450E-11	36.455100
1.504110E-11	36.432500
1.504080E-11	35.556300
1.504930E-11	35.843300
1.505460E-11	35.464700
1.505180E-11	35.517700
1.504970E-11	36.000800
1.503780E-11	35.821400
1.504940E-11	35.875300
1.504670E-11	35.420300
1.504850E-11	36.764700
1.503890E-11	35.697000
1.505550E-11	35.594200
1.504510E-11	35.687700
1.506050E-11	36.149300
1.505820E-11	36.558900
1.505340E-11	35.803900
1.504650E-11	35.123800
1.505280E-11	35.967000
1.505650E-11	35.755600
1.505650E-11	36.064300
1.504280E-11	35.895800
1.504120E-11	35.867500
1.504240E-11	35.777500
1.504530E-11	35.505700
1.504090E-11	36.319700
1.504610E-11	35.973300
1.503990E-11	36.355100
1.505320E-11	35.827300
1.504020E-11	36.578200
1.504100E-11	35.848400
1.503650E-11	36.409700
1.504810E-11	35.503200
1.504770E-11	35.398900
1.503880E-11	35.659600
1.504010E-11	36.311100
1.504210E-11	35.300500
1.504240E-11	35.586000
1.505460E-11	35.404500
1.504170E-11	36.190700
1.504660E-11	36.294800
1.504620E-11	36.555000
1.504730E-11	35.391300
1.505900E-11	35.651800
1.505010E-11	36.715500
1.505700E-11	36.008400
1.505110E-11	35.688500
1.504750E-11	36.088500
1.505870E-11	36.209000
1.505820E-11	36.761900
1.504630E-11	35.660600
1.505360E-11	35.920700
1.505400E-11	35.494700
1.505840E-11	35.646700
1.504190E-11	35.529200
1.504760E-11	35.346600
1.505180E-11	34.770900
1.505370E-11	36.826200
1.506310E-11	35.209700
1.506370E-11	36.100800
1.505330E-11	36.322100
1.505070E-11	36.098400
1.505310E-11	36.226600
1.506960E-11	34.925900
1.506960E-11	35.850600
1.507380E-11	35.597800
1.507970E-11	34.927300
1.507390E-11	34.606700
1.507950E-11	35.177200
1.507910E-11	35.431000
1.506410E-11	35.302300
1.508380E-11	34.319700
1.506550E-11	34.579400
1.507660E-11	35.401200
1.507120E-11	35.182300
1.507560E-11	34.366800
1.507270E-11	33.806600
1.509280E-11	35.230900
1.506620E-11	35.039600
1.506840E-11	35.283500
1.507730E-11	33.924100
1.506430E-11	34.547100
1.508950E-11	34.484100
1.507440E-11	35.993600
1.507850E-11	34.081600
1.507160E-11	34.865200
1.507810E-11	34.022300
1.508600E-11	34.275400
1.508690E-11	35.502200
1.507210E-11	34.772300
1.508450E-11	34.254700
1.509340E-11	34.620100
1.509210E-11	34.741700
1.508100E-11	34.744400
1.508000E-11	35.337500
1.508250E-11	34.885300
1.508140E-11	34.821600
1.509270E-11	34.768700
1.509470E-11	35.102700
1.509490E-11	35.212800
1.509050E-11	34.080300
1.508770E-11	35.005900
1.509170E-11	35.067500
1.510810E-11	34.782500
1.509030E-11	35.100200
1.509300E-11	34.405200
1.510900E-11	34.053900
1.510830E-11	34.924400
1.510360E-11	35.108700
1.510290E-11	34.935800
1.509890E-11	34.326900
1.511460E-11	34.457400
1.511660E-11	34.196400
1.510720E-11	34.256600
1.511450E-11	34.795000
1.510360E-11	34.278800
1.511280E-11	33.839100
1.510830E-11	33.955900
1.510840E-11	35.442200
1.511200E-11	34.094800
1.510850E-11	34.072400
1.510290E-11	33.911900
1.511290E-11	34.533600
1.511090E-11	34.650800
1.510030E-11	33.729700
1.509960E-11	34.074900
1.511060E-11	33.648200
1.510720E-11	33.940200
1.510980E-11	34.099600
1.509570E-11	34.277700
1.510020E-11	34.732000
1.509140E-11	34.513200
1.509980E-11	34.035900
1.511270E-11	34.615200
1.510610E-11	34.757100
1.510110E-11	35.101400
1.509780E-11	34.096400
1.508430E-11	34.450100
1.509580E-11	35.255600
1.509670E-11	35.420400
1.508720E-11	34.328300
1.508930E-11	34.440700
1.509040E-11	35.101700
1.509940E-11	35.151900
1.508420E-11	34.520400
1.508440E-11	34.211900
1.509340E-11	34.081000
1.509340E-11	35.590900
1.509900E-11	34.724200
1.509600E-11	35.390900
1.508370E-11	35.137000
1.508650E-11	33.966000
1.509900E-11	35.156800
1.509070E-11	34.030900
1.508200E-11	35.148800
1.509020E-11	35.522900
1.509700E-11	34.415000
1.507890E-11	34.821500
1.508120E-11	35.032800
1.508140E-11	35.156200
1.509230E-11	35.754900
1.509440E-11	34.259600
1.508510E-11	34.247700
1.509620E-11	34.206800
1.510450E-11	34.227800
1.510290E-11	33.357600
1.509200E-11	33.428200
1.510000E-11	33.529900
1.510690E-11	34.204200
1.509060E-11	34.669700
1.510420E-11	33.283800
1.510940E-11	35.877100
1.510920E-11	33.888600
1.510290E-11	33.547200
1.509380E-11	33.532200
1.509930E-11	33.724900
1.510110E-11	33.530200
1.510400E-11	33.645200
1.509800E-11	33.709300
1.509240E-11	33.967900
1.510300E-11	33.585000
1.510510E-11	33.539100
1.511010E-11	33.805400
1.509710E-11	33.584500
1.509750E-11	34.469700
1.509990E-11	34.312800
1.510300E-11	33.931300
1.511290E-11	34.145000
1.509960E-11	34.405900
1.510690E-11	34.636100
1.510040E-11	33.403000
1.510030E-11	33.625300
1.509480E-11	34.427900
1.510950E-11	33.590700
1.509210E-11	33.887900
1.509530E-11	33.599200
1.509950E-11	34.214000
1.509830E-11	34.872900
1.509520E-11	34.186000
1.509240E-11	33.978300
1.510080E-11	34.044800
1.509600E-11	34.676900
1.509810E-11	34.605700
1.510410E-11	34.917000
1.509610E-11	34.167400
1.510170E-11	34.408100
1.510150E-11	33.699500
1.510300E-11	34.273600
1.508770E-11	34.074400
1.509360E-11	34.727200
1.509840E-11	34.305400
1.509470E-11	33.749000
1.508580E-11	34.461200
1.508850E-11	34.586600
1.509110E-11	35.261600
1.509540E-11	34.689000
1.508470E-11	34.376300
1.508530E-11	34.293300
1.509210E-11	33.593800
1.509230E-11	35.019800
1.509860E-11	34.010200
1.509980E-11	34.950200
1.508380E-11	34.812600
1.508940E-11	33.812500
1.510430E-11	34.469100
1.509560E-11	33.752100
1.509260E-11	34.729500
1.509700E-11	35.284400
1.510000E-11	34.291500
1.510670E-11	34.059200
1.509550E-11	34.883500
1.509070E-11	34.795000
1.508400E-11	34.624900
1.509450E-11	33.848800
1.509140E-11	34.870700
1.508530E-11	34.460900
1.507740E-11	34.262000
1.509550E-11	33.811500
1.509090E-11	33.818800
1.509220E-11	33.578600
1.509510E-11	34.206000
1.507360E-11	34.291900
1.508710E-11	34.830300
1.507970E-11	33.642200
1.509520E-11	34.191800
1.509140E-11	33.664500
1.508510E-11	33.447400
1.507790E-11	33.905000
1.508810E-11	33.729700
1.509130E-11	33.515700
1.508940E-11	35.099500
1.507620E-11	34.162900
1.508980E-11	33.738100
1.507800E-11	34.213500
1.508380E-11	33.635300
1.508290E-11	33.825300
1.507360E-11	34.138700
1.507480E-11	33.945600
1.508360E-11	33.612200
1.459190E-11	14.578200
1.509750E-11	34.554500
1.508860E-11	34.501700
1.510160E-11	33.445700
1.509040E-11	33.774900
1.508470E-11	33.946100
1.510430E-11	33.332700
1.509450E-11	33.452700
1.509330E-11	33.390400
1.509850E-11	33.778400
1.510430E-11	34.474700
1.509810E-11	33.784000
1.509740E-11	33.868000
1.509800E-11	33.440500
1.511210E-11	34.113000
1.510780E-11	34.179000
1.512240E-11	33.479900
1.510770E-11	33.995900
1.510700E-11	33.323700
1.511100E-11	33.647900
1.511240E-11	33.600600
1.509740E-11	33.907200
1.511080E-11	34.167300
1.511280E-11	34.038500
1.511390E-11	33.152700
1.510700E-11	34.382400
1.510270E-11	34.206500
1.512200E-11	33.739000
1.510770E-11	32.797000
1.511840E-11	33.846000
1.511250E-11	34.003600
1.510610E-11	33.949700
1.510640E-11	33.654400
1.511540E-11	33.302600
1.511700E-11	33.035800
1.511120E-11	33.184400
1.511970E-11	34.196600
1.511130E-11	33.957000
1.510990E-11	33.344000
1.512830E-11	33.998800
1.510860E-11	33.932200
1.511760E-11	33.265900
1.511900E-11	33.984000
1.512790E-11	33.016800
1.512630E-11	33.379600
1.511130E-11	32.927400
1.511080E-11	33.553900
1.512080E-11	32.877400
1.512120E-11	32.985900
1.511980E-11	32.906800
1.510650E-11	33.484400
1.511740E-11	34.011700
1.511030E-11	33.803500
1.511430E-11	32.715000
1.512400E-11	33.284400
1.510760E-11	33.821500
1.512380E-11	33.820600
1.511760E-11	33.391000
1.510640E-11	33.201200
1.512120E-11	34.194400
1.512140E-11	34.434100
1.511400E-11	33.416400
1.511550E-11	33.843000
1.512040E-11	34.338600
1.512660E-11	33.612200
1.510810E-11	33.986900
1.510780E-11	33.591500
1.511050E-11	33.010300
1.512320E-11	34.118300
1.512190E-11	32.694300
1.512680E-11	33.660700
1.511480E-11	34.144000
1.510120E-11	33.220400
1.512340E-11	33.036200
1.510800E-11	32.994900
1.512040E-11	33.890800
1.512040E-11	33.813000
1.510850E-11	32.843300
1.510940E-11	33.044800
1.510960E-11	33.401900
1.510990E-11	33.031100
1.510630E-11	33.964500
1.509520E-11	33.270600
1.511340E-11	33.006500
1.511590E-11	33.392600
1.511510E-11	33.618600
1.509970E-11	33.571300
1.509680E-11	33.823700
1.509940E-11	33.651200
1.510850E-11	32.716100
1.511310E-11	34.097400
1.510370E-11	33.804600
1.510690E-11	34.241500
1.510590E-11	33.070600
1.509880E-11	33.461500
1.510300E-11	34.225900
1.510430E-11	34.279300
1.509730E-11	33.878400
1.509540E-11	33.721300
1.510400E-11	34.104400
1.512170E-11	35.057500
1.512090E-11	33.704600
1.510970E-11	33.698200
1.511680E-11	33.080600
1.511720E-11	33.505100
1.512610E-11	33.453500
1.512140E-11	33.301600
1.512110E-11	33.469800
1.511520E-11	32.927900
1.512360E-11	33.271500
1.512320E-11	32.918600
1.511750E-11	33.752800
1.511960E-11	33.544300
1.512970E-11	33.208200
1.512270E-11	32.946300
1.512950E-11	33.863500
1.512480E-11	33.935000
1.512420E-11	32.964100
1.513150E-11	32.630600
1.512950E-11	33.341500
1.513130E-11	33.656000
1.511630E-11	33.675400
1.512580E-11	32.679200
1.513280E-11	32.642900
1.513090E-11	32.804600
1.514010E-11	32.857400
1.512710E-11	33.278100
1.513770E-11	32.629300
1.512770E-11	32.812100
1.513880E-11	33.755700
1.512360E-11	32.977500
1.513830E-11	32.779100
1.513270E-11	32.559300
1.514470E-11	33.083100
1.514550E-11	33.144100
1.513930E-11	32.186700
1.513650E-11	32.847200
1.515050E-11	32.946400
1.515500E-11	32.501000
1.513830E-11	33.607900
1.514330E-11	32.385500
1.514310E-11	32.854100
1.515020E-11	32.364100
1.515760E-11	32.902700
1.514420E-11	33.310100
1.515360E-11	32.291400
1.514200E-11	32.922900
1.515290E-11	32.657800
1.515900E-11	32.983900
1.514560E-11	32.636600
1.514390E-11	32.555700
1.515350E-11	32.637500
1.515500E-11	32.574000
1.515780E-11	32.575000
1.514130E-11	32.362300
1.515490E-11	33.111000
1.515270E-11	32.990900
1.515660E-11	32.478400
1.515390E-11	32.342900
1.514240E-11	32.238000
1.514940E-11	32.479300
1.515510E-11	32.615300
1.514160E-11	33.293800
1.514680E-11	32.569000
1.514140E-11	32.708400
1.515610E-11	33.179000
1.513950E-11	32.897200
1.515600E-11	32.263100
1.513860E-11	32.861200
1.515350E-11	32.416300
1.515970E-11	32.830700
1.514480E-11	32.373400
1.514860E-11	32.255200
1.513670E-11	32.670900
1.514300E-11	32.544900
1.513090E-11	33.530000
1.514280E-11	32.279400
1.514310E-11	32.404400
1.513800E-11	32.536300
1.514090E-11	32.981100
1.512690E-11	33.026400
1.513390E-11	32.400300
1.512980E-11	32.557300
1.513480E-11	33.348000
1.514190E-11	32.612800
1.513510E-11	32.384200
1.512670E-11	32.147200
1.514210E-11	33.443500
1.513900E-11	33.383600
1.514280E-11	32.740000
1.513460E-11	32.551000
1.512680E-11	32.382400
1.513940E-11	33.263400
1.513970E-11	33.150600
1.514830E-11	32.366900
1.512930E-11	32.359200
1.514260E-11	32.365300
1.513910E-11	33.558100
1.512480E-11	32.979300
1.513750E-11	32.299000
1.512620E-11	32.017000
1.513380E-11	33.061800
1.514020E-11	34.400700
1.514470E-11	32.967400
1.514800E-11	32.694400
1.515040E-11	33.465700
1.514860E-11	32.581000
1.514940E-11	32.473100
1.514540E-11	31.899800
1.514540E-11	32.895500
1.514130E-11	33.068800
1.513860E-11	32.395100
1.515440E-11	32.503500
1.515560E-11	31.857600
1.515230E-11	32.335300
1.515110E-11	32.901900
1.514570E-11	31.968500
1.513760E-11	32.520300
1.515010E-11	32.051100
1.514160E-11	33.063300
1.514890E-11	32.899500
1.515220E-11	32.721400
1.515090E-11	32.099900
1.514810E-11	32.856300
1.514040E-11	32.985200
1.514800E-11	32.639000
1.515570E-11	32.266300
1.514970E-11	31.923000
1.515780E-11	32.314800
1.514590E-11	32.762800
1.514490E-11	32.598200
1.515490E-11	32.121500
1.515510E-11	32.515000
1.514700E-11	32.312800
1.514820E-11	32.179100
1.515320E-11	32.381000
1.515270E-11	32.524800
1.514050E-11	32.193700
1.514780E-11	32.522200
1.514520E-11	32.935400
1.515330E-11	32.399500
1.513960E-11	32.777400
1.514360E-11	32.235700
1.514440E-11	32.655900
1.514910E-11	32.847100
1.514090E-11	32.137100
1.513970E-11	32.194700
1.514980E-11	31.547700
1.514700E-11	32.903100
1.515050E-11	32.317500
1.514090E-11	32.947000
1.513510E-11	32.433700
1.515510E-11	32.186600
1.514210E-11	32.957500
1.514930E-11	32.651200
1.513980E-11	32.174800
1.513940E-11	31.728800
1.513920E-11	32.596200
1.514460E-11	33.079500
1.514300E-11	32.450500
1.513690E-11	32.270800
1.513770E-11	32.407600
1.513880E-11	32.699500
1.514690E-11	31.994800
1.515280E-11	32.275900
1.515560E-11	32.739700
1.513870E-11	32.343700
1.513580E-11	32.673400
1.514400E-11	32.404800
1.515530E-11	31.699100
1.515400E-11	32.750800
1.515040E-11	32.475400
1.514600E-11	32.881100
1.516070E-11	31.722700
1.515380E-11	31.781100
1.514790E-11	31.855300
1.514960E-11	32.530400
1.515920E-11	31.393700
1.516240E-11	31.826700
1.515400E-11	31.844400
1.515010E-11	31.827000
1.515520E-11	32.591500
1.514870E-11	31.983600
1.516170E-11	31.618600
1.515150E-11	31.815900
1.515110E-11	32.290100
1.515240E-11	32.086700
1.516080E-11	31.339000
1.516070E-11	32.452900
1.515660E-11	31.796500
1.515470E-11	32.107500
1.516590E-11	32.422200
1.516250E-11	31.416500
1.515650E-11	31.884600
1.515270E-11	31.965700
1.516020E-11	31.917300
1.516400E-11	32.122500
1.516360E-11	31.837000
1.515240E-11	31.746200
1.512960E-11	29.682500
1.514640E-11	32.380100
1.515960E-11	32.339000
1.519990E-11	31.688100
1.543270E-11	13.784700
1.516260E-11	30.933900
1.517910E-11	31.590100
1.516260E-11	32.213600
1.517480E-11	30.829900
1.516100E-11	31.501600
1.517670E-11	31.659900
1.516590E-11	31.994100
1.517100E-11	31.168500
1.517340E-11	31.802400
1.517120E-11	31.710600
1.518000E-11	31.629900
1.518250E-11	31.582700
1.517720E-11	30.923300
1.517640E-11	32.159300
1.517440E-11	32.166200
1.516490E-11	32.218500
1.516670E-11	31.969700
1.517080E-11	30.954600
1.517330E-11	31.400100
1.517550E-11	32.018000
1.516510E-11	31.387900
1.517430E-11	31.461900
1.516910E-11	31.074700
1.517050E-11	32.259400
1.517660E-11	32.088100
1.517970E-11	31.575700
1.516540E-11	32.104600
1.518100E-11	32.082000
1.517640E-11	32.396600
1.517640E-11	31.721400
1.517650E-11	31.378300
1.517520E-11	31.675100
1.518420E-11	31.970500
1.516860E-11	32.003100
1.517810E-11	31.508100
1.517540E-11	31.016600
1.517820E-11	31.260000
1.518330E-11	31.654400
1.517460E-11	31.338800
1.517860E-11	31.049900
1.517840E-11	31.278500
1.517480E-11	31.959900
1.518270E-11	31.706100
1.518340E-11	31.553700
1.518840E-11	31.101500
1.518300E-11	31.839500
1.517900E-11	31.964500
1.518860E-11	31.663200
1.518650E-11	31.331000
1.518340E-11	32.101200
1.517520E-11	31.988800
1.517680E-11	31.223400
1.519460E-11	31.636700
1.519030E-11	31.209600
1.519820E-11	31.087500
1.518960E-11	31.950900
1.518060E-11	31.069000
1.518260E-11	31.669600
1.518800E-11	31.070500
1.519260E-11	31.709700
1.519490E-11	31.552700
1.519910E-11	31.165100
1.519590E-11	30.801000
1.519300E-11	31.497800
1.519700E-11	31.565800
1.519550E-11	31.342900
1.519430E-11	31.134900
1.518510E-11	30.753100
1.519360E-11	30.569700
1.519520E-11	31.751600
1.519390E-11	31.605100
1.519940E-11	30.844300
1.519550E-11	30.948400
1.519340E-11	31.707600
1.518040E-11	30.797000
1.517800E-11	31.511900
1.518920E-11	30.466600
1.518970E-11	31.805700
1.519290E-11	31.233700
1.520110E-11	31.192800
1.518470E-11	30.887800
1.519970E-11	31.266000
1.519230E-11	31.877600
1.518910E-11	31.022200
1.519410E-11	30.774400
1.518810E-11	31.287900
1.518500E-11	31.822900
1.518100E-11	31.313700
1.519070E-11	30.879500
1.518620E-11	30.892300
1.518940E-11	31.132000
1.519200E-11	31.316900
1.518300E-11	31.674800
1.518530E-11	30.738000
1.517850E-11	31.364200
1.519390E-11	31.455900
1.518020E-11	31.553200
1.518590E-11	30.794900
1.518310E-11	31.162200
1.519520E-11	31.082300
1.519480E-11	31.167600
1.518370E-11	30.711100
