Time(ms)	Voltage(V)	Force(N)	Distance(mm)
100	0.031	0.000	0.00
199	0.030	0.000	0.00
300	0.031	0.000	0.00
400	0.031	0.000	0.00
498	0.031	0.000	0.00
599	0.028	0.000	0.00
700	0.030	0.000	0.00
800	0.031	0.000	0.00
900	0.031	0.000	0.00
1000	0.030	0.000	0.00
1100	0.020	0.000	0.00
1200	0.031	0.000	0.00
1299	0.037	0.000	0.00
1399	0.030	0.000	0.00
1499	0.029	0.000	0.00
1599	0.032	0.000	0.00
1699	0.031	0.000	0.00
1799	0.031	0.000	0.00
1899	0.033	-0.240	0.02
1999	0.031	0.330	0.04
2099	0.030	-0.035	0.04
2199	0.022	0.010	0.06
2299	0.031	0.255	0.10
2399	0.032	-0.290	0.10
2499	0.033	0.000	0.12
2599	0.035	-0.040	0.14
2699	0.029	-0.300	0.14
2799	0.029	-0.015	0.16
2900	0.029	0.190	0.16
2999	0.032	-0.335	0.20
3099	0.033	0.210	0.22
3198	0.027	-0.330	0.22
3300	0.030	-0.070	0.24
3399	0.031	0.195	0.26
3500	0.031	-0.105	0.26
3600	0.032	-0.090	0.30
3699	0.024	-0.105	0.32
3799	0.031	-0.390	0.32
3900	0.031	-0.440	0.34
4000	0.031	-0.165	0.38
4099	0.028	-0.435	0.38
4199	0.031	0.140	0.40
4300	0.030	-0.185	0.42
4400	0.031	-0.175	0.42
4500	0.031	0.075	0.44
4600	0.031	-0.220	0.48
4700	0.031	-0.230	0.50
4799	0.030	-0.290	0.50
4899	0.031	-0.600	0.52
4999	0.032	-0.315	0.54
5099	0.032	-0.390	0.54
5200	0.029	-0.425	0.58
5299	0.031	-0.400	0.60
5400	0.031	-0.450	0.60
5499	0.030	-0.475	0.62
5600	0.031	-0.500	0.62
5699	0.030	-0.540	0.66
5800	0.031	-0.425	0.68
5900	0.030	-0.420	0.68
5999	0.007	-0.495	0.70
6099	0.031	-0.490	0.72
6200	0.031	-0.480	0.72
6299	0.032	-0.520	0.76
6400	0.031	-0.500	0.78
6500	0.035	-0.550	0.78
6600	0.030	-0.570	0.80
6698	0.032	-0.575	0.80
6799	0.031	-0.605	0.82
6900	0.033	-0.555	0.86
6999	0.032	-0.345	0.86
7099	0.033	-0.875	0.88
7200	0.035	-0.615	0.90
7300	0.033	-0.645	0.90
7399	0.032	-0.625	0.92
7498	0.031	-0.405	0.96
7599	0.032	-0.675	0.96
7700	0.033	-0.675	0.98
7799	0.035	-0.675	1.00
7899	0.032	-0.600	1.00
7999	0.033	-0.585	1.04
8098	0.037	-0.655	1.06
8200	0.035	-0.690	1.06
8300	0.033	-0.670	1.08
8400	0.034	-0.705	1.10
8498	0.034	-0.705	1.10
8600	0.035	-0.710	1.14
8700	0.031	-0.750	1.16
8800	0.035	-0.540	1.16
8899	0.034	-0.550	1.18
8999	0.035	-0.600	1.18
9100	0.037	-0.600	1.20
9200	0.036	-0.340	1.24
9300	0.036	-0.665	1.24
9400	0.029	-0.645	1.26
9500	0.037	-0.345	1.28
9599	0.037	-0.535	1.28
9699	0.037	-0.255	1.32
9799	0.038	-0.605	1.34
9899	0.039	-0.570	1.34
10000	0.036	-0.300	1.36
10099	0.036	-0.655	1.38
10199	0.038	-0.635	1.38
10300	0.037	-0.385	1.42
10399	0.038	-0.980	1.44
10499	0.039	-0.675	1.44
10600	0.039	-0.440	1.46
10700	0.038	-0.745	1.48
10800	0.040	-0.705	1.48
10899	0.040	-0.760	1.52
10999	0.040	-0.725	1.54
11100	0.040	-0.720	1.54
11199	0.042	-0.785	1.56
11299	0.042	-0.755	1.56
11400	0.042	-0.480	1.60
11499	0.044	-1.100	1.62
11600	0.045	-0.740	1.62
11699	0.045	-0.790	1.64
11800	0.044	-0.775	1.66
11899	0.044	-0.435	1.66
11999	0.046	-0.770	1.70
12099	0.048	-0.760	1.72
12199	0.048	-0.520	1.72
12300	0.051	-0.820	1.74
12399	0.052	-0.800	1.76
12500	0.050	-0.790	1.76
12599	0.052	-1.150	1.80
12699	0.049	-0.810	1.82
12800	0.050	-0.790	1.82
12900	0.049	-0.955	1.84
13001	0.051	-0.620	1.86
13099	0.051	-0.645	1.86
13198	0.048	-0.645	1.90
13300	0.052	-0.655	1.92
13400	0.064	-0.725	1.92
13500	0.052	-0.995	1.94
13600	0.045	-0.460	1.98
13700	0.050	-0.780	2.00
13801	0.052	-1.005	2.00
13900	0.052	-0.745	2.02
14000	0.055	-1.090	2.04
14099	0.051	-0.450	2.04
14199	0.052	-0.775	2.08
14299	0.050	-0.725	2.08
14399	0.051	-0.470	2.10
14499	0.051	-1.040	2.12
14599	0.049	-0.775	2.12
14700	0.050	-0.505	2.14
14799	0.052	-0.575	2.18
14900	0.050	-0.800	2.18
15000	0.052	-0.510	2.20
15100	0.053	-1.135	2.22
15199	0.056	-0.550	2.22
15300	0.054	-0.860	2.26
15399	0.049	-0.855	2.28
15499	0.055	-0.570	2.28
15599	0.052	-1.125	2.30
15700	0.055	-0.855	2.30
15800	0.055	-0.570	2.32
15900	0.056	-0.880	2.36
16000	0.034	-0.850	2.36
16099	0.057	-0.885	2.38
16199	0.058	-1.160	2.40
16300	0.059	-0.855	2.42
16400	0.053	-0.905	2.42
16498	0.058	-0.875	2.46
16599	0.058	-0.575	2.48
16699	0.058	-1.120	2.48
16799	0.061	-0.865	2.50
16899	0.060	-0.890	2.52
17000	0.060	-0.905	2.52
17099	0.062	-0.865	2.56
17200	0.061	-0.905	2.56
17299	0.059	-1.190	2.58
17399	0.061	-0.660	2.60
17499	0.068	-0.945	2.60
17599	0.065	-0.745	2.64
17699	0.067	-0.525	2.66
17800	0.066	-0.810	2.66
17900	0.067	-0.790	2.68
17999	0.068	-0.830	2.70
18099	0.066	-0.840	2.70
18200	0.067	-0.840	2.74
18299	0.068	-0.875	2.76
18399	0.064	-0.870	2.76
18499	0.067	-0.865	2.78
18600	0.070	-0.910	2.80
18699	0.076	-0.895	2.80
18800	0.068	-0.895	2.84
18899	0.065	-0.940	2.84
18999	0.069	-0.905	2.86
19099	0.074	-0.935	2.88
19199	0.074	-1.210	2.88
19299	0.071	-0.915	2.92
19400	0.066	-0.945	2.94
19500	0.072	-1.200	2.94
19599	0.071	-0.690	2.96
19699	0.065	-0.750	2.98
19799	0.071	-0.715	2.98
19899	0.068	-0.490	3.02
19999	0.069	-0.785	3.04
20099	0.070	-0.745	3.04
20200	0.070	-0.530	3.06
20300	0.070	-1.075	3.08
20399	0.070	-0.790	3.08
20499	0.070	-0.840	3.12
20599	0.070	-1.065	3.14
20700	0.073	-0.595	3.14
20799	0.069	-0.890	3.16
20899	0.069	-0.815	3.16
21000	0.074	-0.570	3.20
21100	0.072	-0.885	3.22
21199	0.077	-0.770	3.22
21299	0.071	-0.740	3.24
21400	0.073	-1.035	3.26
21499	0.075	-0.710	3.26
21599	0.076	-0.775	3.30
21699	0.071	-1.045	3.32
21798	0.077	-0.500	3.32
21899	0.074	-0.785	3.34
22000	0.075	-0.790	3.36
22100	0.073	-0.465	3.36
22199	0.072	-1.095	3.40
22299	0.074	-0.805	3.42
22400	0.076	-0.500	3.42
22500	0.074	-1.195	3.44
22599	0.075	-0.830	3.46
22699	0.075	-0.890	3.46
22800	0.067	-1.155	3.50
22898	0.076	-0.520	3.50
23000	0.076	-0.875	3.52
23099	0.078	-0.880	3.54
23199	0.079	-0.635	3.54
23298	0.078	-1.210	3.58
23400	0.078	-1.195	3.60
23499	0.078	-0.910	3.60
23600	0.076	-0.935	3.62
23699	0.077	-0.900	3.64
23800	0.076	-0.625	3.64
23899	0.077	-1.290	3.68
24000	0.077	-0.915	3.70
24100	0.075	-0.940	3.72
24200	0.076	-1.265	3.72
24299	0.076	-0.620	3.74
24398	0.068	-1.230	3.74
24499	0.076	-0.925	3.78
24599	0.077	-0.725	3.80
24700	0.075	-1.240	3.82
24800	0.075	-0.935	3.82
24899	0.075	-0.985	3.86
24999	0.075	-1.320	3.88
25100	0.072	-0.945	3.88
25199	0.075	-1.010	3.90
25299	0.073	-0.965	3.90
25399	0.075	-0.650	3.92
25499	0.077	-1.275	3.96
25600	0.077	-0.995	3.98
25699	0.078	-0.975	3.98
25799	0.084	-1.305	4.00
25899	0.084	-0.965	4.02
26000	0.083	-0.760	4.02
26098	0.084	-1.240	4.06
26199	0.083	-0.985	4.06
26300	0.084	-1.020	4.08
26399	0.089	-0.990	4.10
26500	0.091	-0.985	4.10
26600	0.085	-1.050	4.14
26699	0.092	-1.005	4.16
26799	0.089	-1.045	4.16
26900	0.094	-0.770	4.18
26999	0.091	-1.010	4.20
27099	0.092	-1.050	4.20
27199	0.093	-1.030	4.24
27300	0.097	-1.015	4.26
27400	0.100	-1.055	4.26
27499	0.096	-1.050	4.28
27600	0.095	-0.765	4.30
27699	0.093	-1.340	4.30
27799	0.098	-1.040	4.34
27900	0.101	-0.770	4.34
27999	0.100	-1.395	4.36
28100	0.100	-1.055	4.38
28199	0.107	-1.105	4.38
28298	0.110	-1.075	4.40
28400	0.104	-1.060	4.44
28499	0.101	-1.120	4.44
28599	0.112	-1.120	4.46
28700	0.107	-0.775	4.48
28799	0.106	-1.350	4.48
28900	0.111	-1.085	4.52
29000	0.114	-0.870	4.54
29100	0.115	-1.140	4.54
29199	0.112	-0.840	4.56
29298	0.111	-1.140	4.58
29399	0.099	-1.025	4.58
29500	0.111	-1.005	4.62
29600	0.110	-1.025	4.64
29700	0.109	-0.890	4.64
29799	0.125	-0.645	4.66
29899	0.115	-1.190	4.68
30000	0.120	-0.935	4.68
30100	0.117	-0.675	4.72
30200	0.111	-1.235	4.74
30300	0.108	-0.965	4.74
30400	0.117	-1.005	4.76
30499	0.113	-1.270	4.76
30599	0.090	-0.775	4.80
30699	0.110	-1.050	4.82
30800	0.107	-1.015	4.82
30900	0.107	-0.985	4.84
30999	0.113	-1.275	4.86
31100	0.117	-1.040	4.86
31199	0.115	-1.065	4.90
31300	0.111	-1.080	4.92
31400	0.109	-1.015	4.92
31499	0.111	-1.070	4.94
31600	0.113	-1.345	4.96
31700	0.109	-1.040	4.96
31799	0.111	-1.100	5.00
31899	0.116	-1.085	5.02
32000	0.113	-0.770	5.02
32100	0.111	-1.035	5.04
32199	0.112	-1.310	5.06
32299	0.113	-0.810	5.06
32399	0.108	-1.375	5.10
32499	0.107	-1.030	5.10
32600	0.112	-1.075	5.12
32699	0.119	-1.070	5.14
32798	0.122	-0.605	5.14
32899	0.109	-0.985	5.18
32999	0.115	-0.960	5.20
33100	0.116	-0.965	5.20
33200	0.112	-1.025	5.22
33299	0.110	-1.010	5.24
33399	0.114	-0.765	5.24
33500	0.111	-1.060	5.28
33599	0.111	-0.765	5.30
33699	0.112	-1.075	5.30
33799	0.103	-1.305	5.32
33899	0.121	-1.050	5.34
33999	0.110	-1.385	5.34
34100	0.104	-1.400	5.38
34200	0.104	-0.745	5.38
34300	0.102	-1.130	5.40
34400	0.100	-1.090	5.42
34500	0.104	-0.780	5.42
34600	0.101	-1.440	5.46
34699	0.114	-0.870	5.48
34798	0.111	-0.965	5.48
34899	0.107	-1.225	5.50
34999	0.111	-0.580	5.52
35099	0.098	-0.975	5.52
35200	0.106	-1.285	5.56
35299	0.107	-0.675	5.58
35400	0.100	-1.280	5.58
35500	0.104	-1.315	5.60
35600	0.104	-0.655	5.62
35699	0.102	-1.360	5.62
35800	0.103	-1.370	5.66
35900	0.108	-1.055	5.68
35999	0.103	-1.355	5.68
36100	0.104	-0.790	5.70
36199	0.105	-1.350	5.74
36299	0.108	-1.070	5.74
36399	0.106	-0.790	5.76
36500	0.104	-1.125	5.78
36600	0.104	-1.440	5.80
36700	0.108	-0.770	5.80
36799	0.106	-1.465	5.84
36900	0.105	-1.100	5.84
36999	0.103	-1.155	5.86
37100	0.107	-1.505	5.88
37199	0.107	-0.760	5.88
37299	0.108	-1.390	5.90
37400	0.107	-1.395	5.94
37500	0.105	-0.805	5.96
37599	0.106	-1.505	5.96
37699	0.105	-1.115	5.98
37800	0.110	-0.780	6.00
37900	0.108	-1.175	6.00
38000	0.111	-1.130	6.04
38099	0.109	-1.150	6.04
38199	0.105	-1.470	6.06
38300	0.109	-1.085	6.08
38400	0.110	-1.145	6.08
38499	0.107	-1.480	6.12
38600	0.111	-0.875	6.14
38699	0.106	-1.425	6.14
38799	0.107	-1.150	6.16
38899	0.107	-0.820	6.18
38999	0.107	-1.480	6.18
39100	0.109	-1.135	6.22
39199	0.109	-1.170	6.24
39299	0.109	-1.500	6.24
39399	0.111	-0.835	6.26
39500	0.111	-1.165	6.28
39599	0.110	-1.160	6.28
39700	0.111	-0.800	6.32
39798	0.112	-1.480	6.34
39900	0.117	-1.165	6.34
40000	0.117	-0.855	6.36
40100	0.116	-1.495	6.36
40199	0.116	-0.905	6.40
40299	0.116	-1.205	6.42
40400	0.114	-1.435	6.42
40500	0.116	-1.145	6.44
40599	0.114	-1.470	6.46
40700	0.115	-1.480	6.46
40800	0.117	-0.880	6.50
40899	0.116	-1.460	6.52
40999	0.118	-1.180	6.52
41099	0.116	-0.960	6.54
41199	0.115	-1.515	6.56
41299	0.116	-1.205	6.56
41400	0.116	-1.200	6.60
41499	0.118	-1.535	6.62
41599	0.116	-0.895	6.62
41699	0.123	-1.245	6.64
41800	0.122	-1.525	6.64
41899	0.124	-0.895	6.68
41999	0.123	-1.250	6.70
42099	0.120	-1.210	6.70
42199	0.151	-1.250	6.72
42300	0.137	-1.200	6.74
42400	0.143	-1.135	6.74
42500	0.135	-1.155	6.78
42599	0.139	-1.160	6.80
42699	0.142	-0.860	6.80
42799	0.142	-1.220	6.82
42899	0.145	-1.180	6.84
43000	0.142	-1.190	6.84
43100	0.140	-1.235	6.88
43199	0.141	-1.205	6.90
43299	0.149	-1.235	6.90
43400	0.143	-1.460	6.92
43500	0.144	-1.160	6.94
43599	0.141	-1.210	6.94
43700	0.140	-1.520	6.98
43799	0.144	-0.920	6.98
43899	0.144	-1.245	7.00
44000	0.142	-1.235	7.02
44099	0.145	-1.000	7.02
44199	0.139	-1.495	7.06
44299	0.137	-1.230	7.08
44399	0.132	-1.270	7.08
44499	0.144	-1.250	7.10
44600	0.138	-1.170	7.12
44698	0.135	-1.225	7.12
44800	0.135	-1.500	7.16
44900	0.130	-1.205	7.18
44999	0.135	-1.505	7.18
45100	0.176	-1.520	7.20
45200	0.168	-0.920	7.22
45299	0.189	-1.485	7.22
45400	0.181	-1.435	7.26
45499	0.179	-0.915	7.28
45599	0.176	-1.565	7.28
45699	0.176	-0.975	7.30
45799	0.173	-1.280	7.30
45899	0.175	-1.655	7.34
46000	0.173	-1.230	7.36
46100	0.172	-1.265	7.36
46199	0.180	-1.215	7.38
46300	0.171	-0.950	7.40
46399	0.171	-1.530	7.40
46499	0.170	-1.195	7.44
46600	0.173	-0.945	7.46
46699	0.171	-1.635	7.46
46799	0.173	-1.225	7.48
46900	0.189	-0.920	7.50
46999	0.184	-1.475	7.54
47099	0.184	-0.755	7.54
47199	0.186	-1.420	7.56
47299	0.184	-1.140	7.58
47400	0.186	-0.785	7.58
47500	0.186	-1.210	7.60
47599	0.191	-1.180	7.64
47700	0.193	-0.945	7.64
47799	0.188	-1.545	7.66
47899	0.191	-1.215	7.68
47999	0.195	-1.270	7.68
48100	0.192	-1.570	7.72
48200	0.198	-0.970	7.74
48300	0.198	-1.000	7.74
48400	0.198	-1.525	7.76
48499	0.205	-0.915	7.78
48600	0.199	-1.290	7.78
48700	0.202	-1.245	7.82
48800	0.201	-0.925	7.84
48899	0.201	-1.620	7.84
49000	0.208	-1.265	7.86
49100	0.212	-1.055	7.88
49200	0.215	-1.590	7.88
49299	0.211	-0.930	7.92
49400	0.213	-1.280	7.92
49500	0.211	-1.270	7.94
49599	0.211	-1.015	7.96
49700	0.212	-1.285	7.96
49799	0.215	-1.250	8.00
49900	0.217	-0.930	8.02
49999	0.223	-1.640	8.02
50099	0.204	-1.045	8.04
50200	0.216	-0.960	8.06
50300	0.218	-1.675	8.06
50400	0.240	-1.290	8.10
50500	0.242	-1.270	8.12
50600	0.245	-1.555	8.12
50700	0.222	-0.935	8.14
50799	0.218	-1.530	8.16
50900	0.216	-1.220	8.16
51000	0.247	-0.940	8.20
51100	0.228	-1.560	8.22
51199	0.220	-0.905	8.22
51300	0.239	-1.020	8.24
51400	0.237	-1.665	8.24
51499	0.228	-0.930	8.28
51599	0.229	-1.325	8.30
51699	0.226	-1.290	8.30
51800	0.229	-0.930	8.32
51900	0.236	-1.570	8.34
51999	0.249	-1.305	8.34
52099	0.243	-1.335	8.38
52200	0.253	-1.640	8.40
52300	0.255	-1.320	8.40
52399	0.243	-1.355	8.42
52499	0.243	-1.565	8.44
52599	0.239	-1.035	8.44
52699	0.238	-1.330	8.48
52800	0.243	-1.320	8.50
52900	0.244	-1.030	8.50
53000	0.262	-1.355	8.52
53099	0.244	-1.325	8.54
53199	0.245	-1.080	8.54
53299	0.241	-1.640	8.58
53400	0.270	-1.350	8.58
53499	0.272	-1.365	8.60
53600	0.276	-1.680	8.62
53700	0.263	-1.345	8.62
53800	0.259	-1.385	8.66
53900	0.252	-1.650	8.68
53999	0.258	-1.085	8.68
54099	0.243	-1.665	8.70
54200	0.230	-1.395	8.72
54300	0.251	-1.140	8.72
54400	0.246	-1.685	8.76
54500	0.238	-1.365	8.78
54600	0.238	-1.115	8.78
54699	0.248	-1.615	8.80
54800	0.249	-1.120	8.82
54899	0.246	-1.420	8.82
55000	0.257	-1.655	8.86
55099	0.242	-1.100	8.88
55200	0.242	-1.395	8.88
55300	0.241	-1.375	8.90
55398	0.249	-1.420	8.90
55499	0.240	-1.725	8.94
55599	0.241	-1.370	8.96
55699	0.234	-1.435	8.96
55800	0.228	-1.665	8.98
55899	0.231	-1.120	9.00
55999	0.220	-1.390	9.00
56099	0.227	-1.360	9.04
56200	0.224	-1.375	9.06
56300	0.221	-1.420	9.06
56399	0.220	-1.390	9.08
56499	0.227	-1.430	9.10
56599	0.235	-1.735	9.10
56699	0.235	-1.145	9.14
56800	0.240	-1.435	9.16
56900	0.249	-1.730	9.16
56999	0.242	-1.085	9.18
57099	0.240	-1.390	9.18
57200	0.232	-1.625	9.22
57300	0.246	-1.110	9.24
57400	0.237	-1.420	9.24
57500	0.247	-1.405	9.26
57600	0.247	-1.110	9.28
57700	0.239	-1.680	9.28
57799	0.236	-1.410	9.32
57899	0.244	-1.445	9.34
57999	0.249	-1.780	9.34
58100	0.251	-1.155	9.36
58201	0.242	-1.215	9.38
58300	0.240	-1.770	9.38
58400	0.251	-1.035	9.42
58500	0.300	-1.455	9.44
58600	0.293	-1.740	9.46
58699	0.288	-1.205	9.46
58800	0.271	-1.775	9.48
58899	0.288	-1.410	9.52
58998	0.387	-1.485	9.52
59100	0.294	-1.470	9.54
59200	0.321	-1.155	9.56
59299	0.306	-1.495	9.56
59400	0.319	-1.845	9.60
59499	0.316	-1.075	9.62
59599	0.295	-1.515	9.62
59699	0.323	-1.465	9.64
59799	0.292	-1.130	9.66
59900	0.309	-1.860	9.66
59999	0.291	-1.450	9.70
60100	0.282	-1.210	9.72
60200	0.295	-1.890	9.72
60300	0.286	-1.195	9.74
60400	0.289	-1.515	9.76
60499	0.310	-1.480	9.76
60600	0.290	-1.050	9.80
60700	0.311	-1.185	9.82
60799	0.310	-1.405	9.82
60899	0.307	-1.460	9.84
60999	0.297	-1.855	9.84
61100	0.288	-1.440	9.88
61200	0.276	-1.495	9.90
61299	0.272	-1.785	9.90
61400	0.278	-1.450	9.92
61500	0.270	-1.515	9.94
61600	0.275	-1.800	9.94
61699	0.281	-1.135	9.98
61799	0.278	-1.890	10.00
61900	0.280	-1.495	10.00
62000	0.268	-1.165	10.02
62099	0.269	-1.860	10.04
62199	0.271	-1.460	10.04
62299	0.275	-1.535	10.08
62400	0.272	-1.870	10.10
62500	0.290	-1.500	10.10
62599	0.271	-1.540	10.12
62700	0.256	-1.485	10.14
62799	0.273	-1.120	10.14
62899	0.281	-1.835	10.18
62999	0.280	-1.485	10.18
63099	0.351	-1.535	10.20
63200	0.334	-1.610	10.22
63300	0.304	-1.315	10.22
63400	0.295	-1.060	10.26
63500	0.282	-1.745	10.28
63599	0.294	-1.015	10.28
63699	0.300	-1.410	10.30
63800	0.306	-1.690	10.32
63900	0.297	-1.060	10.32
63999	0.298	-1.445	10.36
64099	0.295	-1.400	10.38
64199	0.300	-1.450	10.38
64300	0.293	-1.480	10.40
64399	0.302	-1.150	10.42
64499	0.288	-1.495	10.42
64600	0.285	-1.795	10.46
64700	0.297	-1.215	10.48
64799	0.307	-1.520	10.50
64899	0.282	-1.495	10.50
64999	0.273	-1.150	10.54
65099	0.272	-1.715	10.54
65199	0.275	-1.435	10.56
65300	0.280	-1.175	10.58
65399	0.282	-1.805	10.60
65499	0.287	-1.230	10.60
65600	0.286	-1.270	10.64
65699	0.291	-1.775	10.64
65799	0.293	-1.235	10.66
65899	0.293	-1.540	10.68
65999	0.299	-1.510	10.68
66100	0.297	-1.250	10.70
66199	0.342	-1.570	10.74
66299	0.367	-1.510	10.74
66399	0.357	-1.555	10.76
66500	0.354	-1.720	10.78
66599	0.339	-1.100	10.78
66699	0.341	-1.410	10.82
66799	0.336	-1.705	10.82
66900	0.325	-1.390	10.84
67000	0.319	-1.440	10.86
67100	0.319	-1.695	10.86
67200	0.340	-1.145	10.88
67299	0.338	-1.640	10.92
67400	0.335	-1.385	10.92
67500	0.334	-1.140	10.94
67599	0.326	-1.695	10.96
67699	0.323	-1.140	10.96
67799	0.336	-1.475	10.98
67899	0.326	-1.455	11.02
67999	0.327	-1.195	11.02
68099	0.337	-1.505	11.04
68200	0.337	-1.750	11.06
68300	0.336	-1.195	11.06
68400	0.340	-1.540	11.08
68500	0.428	-1.775	11.12
68599	0.402	-1.295	11.12
68699	0.396	-1.535	11.14
68801	0.394	-1.250	11.16
68900	0.387	-0.965	11.16
68999	0.382	-1.590	11.20
69099	0.385	-0.960	11.22
69200	0.389	-1.320	11.22
69299	0.377	-1.255	11.24
69399	0.379	-0.965	11.26
69499	0.379	-1.585	11.26
69599	0.387	-1.055	11.30
69700	0.394	-1.040	11.32
69800	0.384	-1.630	11.32
69899	0.382	-0.985	11.34
70000	0.374	-1.050	11.36
70100	0.374	-1.770	11.36
70199	0.378	-1.020	11.40
70300	0.373	-1.420	11.42
70400	0.369	-1.390	11.42
70499	0.366	-1.025	11.44
70599	0.355	-1.805	11.44
70700	0.353	-1.425	11.48
70799	0.359	-1.085	11.50
70899	0.353	-1.845	11.50
70999	0.351	-1.120	11.52
71099	0.349	-1.505	11.54
71199	0.355	-1.475	11.54
71299	0.352	-1.100	11.58
71400	0.341	-1.530	11.60
71500	0.344	-1.805	11.60
71599	0.346	-1.215	11.62
71700	0.342	-1.545	11.64
71800	0.360	-1.790	11.64
71899	0.358	-1.545	11.68
71999	0.351	-1.880	11.70
72099	0.393	-1.265	11.70
72199	0.436	-1.560	11.72
72299	0.416	-1.515	11.72
72399	0.426	-1.125	11.76
72499	0.428	-1.570	11.78
72600	0.397	-1.920	11.80
72699	0.409	-1.195	11.80
72799	0.400	-1.575	11.82
72900	0.392	-1.855	11.86
73000	0.390	-1.260	11.86
73100	0.387	-1.600	11.88
73199	0.397	-1.540	11.90
73299	0.459	-1.610	11.90
73399	0.438	-1.975	11.92
73500	0.392	-1.560	11.96
73600	0.396	-1.615	11.96
73700	0.400	-1.960	11.98
73801	0.375	-1.565	12.00
73899	0.370	-1.960	12.00
74000	0.368	-1.850	12.02
74099	0.361	-1.635	12.06
74199	0.366	-1.655	12.06
74300	0.361	-1.600	12.08
74399	0.368	-1.400	12.08
74500	0.361	-1.355	12.10
74599	0.357	-1.270	12.14
74700	0.358	-1.305	12.16
74800	0.353	-1.920	12.16
74900	0.375	-1.295	12.18
74999	0.357	-1.795	12.18
75099	0.394	-1.510	12.20
75199	0.442	-1.575	12.24
75299	0.416	-1.905	12.24
75400	0.407	-1.570	12.26
75499	0.386	-1.615	12.28
75599	0.394	-1.890	12.28
75700	0.386	-1.330	12.30
75799	0.385	-1.660	12.30
75899	0.389	-1.620	12.34
76000	0.396	-1.305	12.36
76100	0.391	-1.680	12.36
76200	0.369	-1.650	12.38
76300	0.382	-1.365	12.42
76400	0.368	-1.700	12.42
76499	0.446	-1.640	12.44
76600	0.404	-1.565	12.46
76699	0.436	-1.855	12.48
76800	0.410	-1.555	12.48
76899	0.429	-1.610	12.52
77000	0.439	-1.620	12.54
77100	0.423	-1.275	12.54
77200	0.471	-1.665	12.56
77299	0.425	-1.620	12.58
77399	0.469	-1.660	12.58
77500	0.429	-1.990	12.62
77599	0.484	-1.340	12.64
77699	0.466	-1.675	12.64
77799	0.454	-2.010	12.66
77900	0.455	-1.410	12.68
77998	0.436	-1.990	12.68
78100	0.430	-1.955	12.72
78200	0.468	-1.405	12.72
78299	0.454	-1.960	12.74
78399	0.440	-1.615	12.76
78499	0.439	-1.650	12.76
78600	0.477	-1.995	12.80
78699	0.472	-1.180	12.82
78800	0.464	-1.210	12.82
78900	0.464	-1.810	12.84
78999	0.474	-1.200	12.84
79100	0.454	-1.515	12.86
79199	0.455	-1.505	12.90
79299	0.437	-1.245	12.90
79400	0.437	-1.555	12.92
79500	0.478	-1.845	12.94
79600	0.478	-1.555	12.94
79699	0.467	-1.810	12.96
79799	0.480	-1.285	13.00
79899	0.483	-1.600	13.00
79999	0.472	-1.855	13.02
80099	0.468	-1.290	13.04
80200	0.497	-1.650	13.04
80299	0.547	-1.630	13.08
80399	0.500	-1.340	13.10
80500	0.483	-1.620	13.10
80599	0.493	-1.590	13.12
80700	0.497	-1.310	13.12
80800	0.505	-1.930	13.14
80900	0.485	-1.615	13.18
80999	0.479	-1.670	13.18
81099	0.472	-2.025	13.20
81199	0.509	-1.270	13.22
81299	0.546	-1.955	13.22
81399	0.481	-1.665	13.24
81500	0.489	-1.655	13.28
81600	0.469	-1.975	13.28
81699	0.466	-1.430	13.30
81814	0.459	-1.270	13.32
81899	0.449	-2.120	13.32
81999	0.523	-1.270	13.36
82100	0.501	-1.285	13.38
82200	0.490	-1.810	13.38
82299	0.492	-1.130	13.40
82399	0.481	-1.880	13.42
82499	0.484	-1.900	13.42
82600	0.478	-1.150	13.46
82699	0.468	-1.950	13.48
82799	0.467	-1.550	13.48
82900	0.477	-1.215	13.50
82999	0.478	-1.935	13.52
83099	0.479	-1.275	13.52
83199	0.463	-1.660	13.56
83299	0.470	-1.620	13.58
83400	0.459	-1.625	13.58
83500	0.461	-1.680	13.60
83599	0.457	-1.630	13.62
83699	0.447	-1.435	13.62
83800	0.485	-1.715	13.66
83899	0.537	-1.275	13.66
83999	0.509	-1.575	13.68
84099	0.505	-1.880	13.70
84199	0.506	-1.190	13.70
84300	0.511	-1.570	13.74
84400	0.498	-1.925	13.76
84500	0.487	-1.555	13.76
84599	0.490	-1.955	13.78
84699	0.492	-1.580	13.80
84799	0.482	-1.235	13.80
84899	0.468	-1.980	13.84
84999	0.477	-1.600	13.86
85100	0.478	-1.350	13.86
85199	0.479	-2.025	13.88
85300	0.471	-1.615	13.90
85399	0.472	-1.680	13.90
85499	0.478	-2.090	13.94
85600	0.468	-1.275	13.96
85700	0.459	-1.705	13.98
85799	0.466	-1.680	13.98
85900	0.459	-1.660	14.02
86000	0.457	-2.020	14.02
86099	0.455	-1.365	14.04
86198	0.464	-1.740	14.06
86300	0.454	-2.085	14.06
86401	0.460	-2.025	14.08
86499	0.462	-1.740	14.12
86599	0.448	-2.035	14.12
86699	0.462	-1.330	14.14
86799	0.462	-2.085	14.16
86899	0.466	-1.725	14.16
87000	0.468	-1.360	14.18
87100	0.468	-1.775	14.22
87199	0.460	-1.710	14.22
87300	0.469	-1.380	14.24
87399	0.463	-2.120	14.26
87499	0.578	-1.370	14.26
87600	0.572	-1.435	14.30
87699	0.564	-1.985	14.30
87800	0.549	-1.425	14.32
87900	0.554	-1.800	14.34
88000	0.552	-2.060	14.36
88099	0.567	-1.790	14.36
88199	0.560	-2.090	14.40
88299	0.571	-1.770	14.40
88399	0.568	-1.805	14.42
88499	0.532	-2.135	14.44
88600	0.567	-1.775	14.46
88700	0.570	-1.825	14.46
88800	0.537	-2.180	14.50
88899	0.553	-1.450	14.52
88999	0.559	-2.110	14.52
89099	0.552	-1.790	14.54
89199	0.566	-1.475	14.56
89299	0.550	-2.175	14.56
89399	0.569	-1.805	14.60
89500	0.556	-1.550	14.60
89600	0.549	-1.850	14.62
89700	0.550	-1.805	14.64
89800	0.567	-1.560	14.64
89900	0.567	-2.135	14.68
89999	0.570	-1.435	14.70
90100	0.572	-1.800	14.70
90200	0.596	-2.150	14.72
90300	0.596	-1.420	14.74
90399	0.619	-2.180	14.74
90499	0.626	-1.765	14.78
90599	0.619	-1.825	14.80
90700	0.631	-2.190	14.80
90799	0.633	-1.795	14.82
90899	0.670	-1.855	14.84
90999	0.683	-1.825	14.84
91100	0.669	-1.810	14.88
91200	0.676	-1.860	14.90
91299	0.647	-1.840	14.90
91400	0.636	-1.475	14.92
91499	0.600	-2.100	14.92
91600	0.590	-2.140	14.96
91700	0.645	-1.465	14.98
91799	0.611	-2.115	14.98
91900	0.574	-2.120	15.00
92000	0.579	-1.590	15.02
92100	0.572	-2.245	15.02
92198	0.582	-1.485	15.06
92299	0.563	-1.885	15.08
92399	0.585	-1.835	15.08
92500	0.562	-1.435	15.10
92599	0.638	-2.135	15.12
92700	0.640	-2.140	15.12
92800	0.645	-1.345	15.16
92899	0.618	-2.145	15.18
92999	0.601	-1.785	15.18
93099	0.608	-1.855	15.20
93199	0.606	-2.175	15.22
93300	0.749	-1.465	15.22
93399	0.634	-1.710	15.26
93500	0.627	-1.995	15.26
93599	0.619	-1.245	15.28
93699	0.662	-2.080	15.30
93799	0.629	-1.660	15.30
93899	0.634	-1.700	15.34
93999	0.608	-2.170	15.36
94098	0.630	-1.255	15.36
94199	0.670	-1.480	15.38
94299	0.661	-2.000	15.40
94400	0.620	-1.345	15.40
94499	0.614	-1.800	15.44
94600	0.615	-2.185	15.46
94700	0.623	-1.370	15.46
94801	0.637	-1.815	15.48
94900	0.663	-2.165	15.50
94999	0.684	-1.425	15.50
95099	10.547	-2.235	15.54
95200	0.863	-2.215	15.56
95299	0.866	-1.860	15.56
95399	0.777	-2.170	15.58
95499	0.862	-1.405	15.62
95599	0.827	-2.115	15.64
95700	0.781	-2.100	15.64
95800	0.766	-1.485	15.66
95900	0.744	-2.090	15.68
95999	0.902	-1.825	15.68
96099	0.921	-1.885	15.72
96200	1.042	-2.090	15.74
96300	0.855	-1.790	15.74
96399	0.825	-1.860	15.76
96498	0.823	-1.825	15.78
96600	0.800	-1.555	15.78
96700	0.872	-1.880	15.82
96800	0.836	-2.185	15.84
96900	0.978	-1.450	15.84
96999	0.869	-2.270	15.86
97100	0.974	-1.860	15.86
97199	1.014	-1.905	15.90
97300	0.977	-2.260	15.92
97399	0.852	-1.630	15.92
97499	0.823	-1.920	15.94
97599	0.822	-2.180	15.96
97700	0.827	-1.635	15.96
97799	0.825	-2.275	16.00
97899	0.824	-1.880	16.02
97999	0.823	-1.910	16.02
98099	0.820	-2.290	16.04
98200	0.824	-1.905	16.06
98300	0.926	-1.580	16.06
98399	0.912	-2.245	16.10
98499	0.918	-1.565	16.12
98600	0.894	-1.890	16.12
98698	0.929	-2.115	16.14
98799	0.946	-1.530	16.16
98900	0.945	-1.925	16.16
98999	0.949	-1.885	16.20
99099	0.943	-1.660	16.20
99199	0.942	-1.955	16.22
99300	0.937	-2.155	16.24
99399	0.946	-1.950	16.24
99499	0.939	-2.305	16.28
99599	0.943	-1.600	16.30
99699	0.964	-1.990	16.30
99799	0.950	-2.360	16.32
99899	0.951	-1.545	16.34
99999	0.948	-2.260	16.34
100100	0.949	-1.960	16.38
100199	0.943	-1.575	16.40
100299	0.938	-2.330	16.40
100399	0.935	-1.970	16.42
100499	0.951	-2.010	16.44
100599	1.039	-2.365	16.44
100700	0.967	-1.840	16.48
100799	0.981	-1.900	16.50
100899	1.029	-2.260	16.50
101000	1.099	-1.600	16.52
101100	1.092	-1.935	16.52
101200	1.124	-1.915	16.56
101300	1.058	-1.570	16.58
101398	1.035	-2.265	16.58
101500	0.696	-1.950	16.60
101600	0.692	-1.680	16.62
101700	0.687	-2.285	16.62
101800	0.693	-1.910	16.66
101900	0.709	-1.660	16.68
101999	0.714	-1.940	16.68
102099	2.100	-1.620	16.70
102199	0.909	-2.000	16.72
102299	0.918	-1.930	16.72
102399	0.910	-1.690	16.76
102500	0.905	-1.995	16.78
102599	0.944	-1.965	16.78
102699	0.959	-2.005	16.80
102800	1.026	-2.325	16.80
102899	1.048	-1.670	16.84
102999	1.043	-2.035	16.86
103100	1.096	-2.385	16.86
103200	1.153	-1.705	16.88
103299	1.352	-2.035	16.90
103400	1.316	-2.295	16.90
103500	1.359	-1.665	16.94
103602	1.298	-1.690	16.96
103700	1.512	-2.400	16.96
103800	1.372	-1.660	16.98
103900	1.475	-2.070	17.00
103999	0.861	-1.750	17.00
104100	0.806	-1.600	17.04
104200	0.934	-2.300	17.06
104299	0.895	-1.505	17.06
104400	0.874	-1.930	17.08
104500	0.897	-2.285	17.10
104600	0.892	-1.535	17.10
104700	0.918	-2.240	17.14
104799	0.893	-1.930	17.14
104899	0.858	-1.985	17.16
105000	0.812	-2.320	17.18
105099	0.781	-1.675	17.18
105200	0.895	-1.620	17.22
105300	0.819	-2.295	17.24
105399	0.821	-1.605	17.24
105500	0.846	-1.995	17.26
105600	0.859	-2.355	17.28
105700	0.845	-1.605	17.28
105800	0.896	-2.035	17.32
105900	0.920	-1.980	17.34
105999	0.879	-1.720	17.34
106100	0.866	-2.425	17.36
106199	0.873	-1.660	17.38
106299	0.853	-1.825	17.38
106399	0.840	-2.395	17.42
106499	0.837	-1.585	17.44
106599	0.847	-2.445	17.44
106700	0.850	-2.045	17.46
106799	0.883	-1.625	17.50
106900	0.893	-2.395	17.50
107000	0.877	-2.375	17.52
107100	0.882	-1.710	17.54
107200	0.880	-2.405	17.54
107299	0.881	-1.660	17.56
107399	0.880	-2.095	17.60
107500	0.881	-2.520	17.60
107599	0.915	-1.660	17.62
107699	0.983	-2.375	17.64
107799	0.899	-2.395	17.64
107900	0.909	-2.065	17.66
108000	0.903	-2.370	17.70
108100	1.009	-2.075	17.70
108199	0.931	-2.130	17.72
108300	0.927	-2.230	17.74
108399	0.943	-1.595	17.74
108500	0.914	-2.015	17.76
108599	0.904	-2.385	17.80
108699	0.930	-1.610	17.80
108800	0.949	-2.075	17.82
108900	1.003	-2.285	17.84
108999	0.918	-1.660	17.84
109100	0.916	-2.075	17.88
109199	0.935	-2.030	17.88
109299	0.947	-2.090	17.90
109399	0.936	-2.260	17.92
109500	0.889	-1.975	17.92
109599	0.881	-2.050	17.94
109700	0.893	-2.480	17.98
109800	0.942	-2.005	17.98
109900	1.155	-2.075	18.00
110000	0.906	-2.375	18.02
110100	0.997	-1.650	18.02
110199	0.966	-2.500	18.04
110299	0.956	-1.735	18.08
110400	1.050	-1.730	18.08
110500	1.017	-2.135	18.10
110600	0.913	-2.075	18.12
110700	0.943	-1.815	18.12
110799	0.956	-2.340	18.16
110900	0.937	-1.760	18.16
110999	0.933	-2.375	18.18
111099	0.914	-2.040	18.20
111200	0.912	-1.705	18.20
111300	0.974	-2.115	18.22
111400	0.965	-2.010	18.26
111499	0.904	-2.050	18.26
111599	0.903	-2.460	18.28
111699	0.974	-1.765	18.30
111799	1.003	-2.110	18.30
111900	0.985	-2.495	18.32
112000	1.065	-2.080	18.36
112099	0.980	-2.360	18.36
112199	0.963	-2.080	18.38
112299	0.930	-1.770	18.40
112399	0.938	-2.105	18.40
112499	0.958	-2.060	18.44
112600	0.934	-1.710	18.46
112699	0.988	-2.555	18.46
112799	1.016	-1.855	18.48
112900	1.028	-1.875	18.50
112999	1.025	-2.480	18.50
113100	0.876	-2.110	18.54
113199	0.968	-2.385	18.56
113300	0.962	-2.435	18.56
113400	0.918	-1.695	18.58
113500	0.942	-2.405	18.60
113599	0.953	-2.080	18.60
113699	0.972	-1.775	18.64
113799	0.958	-2.470	18.66
113899	0.939	-1.715	18.66
114000	0.973	-2.095	18.68
114099	0.876	-2.075	18.70
114200	0.992	-1.725	18.70
114300	0.946	-1.980	18.74
114399	0.923	-1.920	18.74
114500	0.909	-1.935	18.76
114600	0.907	-2.240	18.78
114700	0.909	-1.975	18.78
114799	0.933	-1.730	18.82
114900	0.979	-2.350	18.84
115000	0.967	-1.865	18.84
115100	0.952	-1.930	18.86
115199	0.942	-2.220	18.88
115299	0.952	-1.585	18.88
115400	1.002	-1.970	18.92
115500	1.010	-2.290	18.94
115600	0.976	-1.570	18.94
115699	1.006	-2.400	18.96
115799	1.008	-1.975	18.98
115900	1.000	-1.620	18.98
115999	0.989	-2.395	19.02
116099	1.014	-2.005	19.04
116200	1.018	-1.995	19.04
116299	1.009	-1.980	19.06
116400	0.999	-1.725	19.06
116499	1.018	-2.040	19.10
116600	1.062	-2.460	19.12
116699	1.041	-1.760	19.12
116799	1.049	-2.370	19.14
116900	1.062	-2.435	19.16
117000	1.066	-1.670	19.16
117099	1.047	-2.480	19.20
117199	1.045	-1.790	19.22
117299	1.037	-2.100	19.22
117400	1.049	-2.545	19.24
117500	1.029	-1.750	19.26
117600	1.015	-2.115	19.26
117700	1.059	-2.505	19.30
117800	1.055	-1.995	19.32
117900	1.043	-2.300	19.32
118001	1.064	-2.345	19.34
118098	1.089	-2.060	19.34
118200	0.918	-2.470	19.38
118300	0.924	-2.025	19.40
118399	0.934	-2.085	19.40
118499	0.950	-2.390	19.42
118600	0.920	-2.050	19.44
118700	0.918	-2.115	19.44
118800	0.918	-2.515	19.48
118900	0.936	-1.660	19.50
119000	0.985	-2.145	19.50
119100	0.925	-2.105	19.52
119200	0.921	-1.650	19.54
119300	0.914	-2.440	19.54
119399	0.900	-1.765	19.58
119500	0.934	-1.905	19.60
119600	0.933	-2.570	19.60
119700	0.966	-2.105	19.62
119799	0.877	-2.550	19.64
119899	0.883	-2.120	19.64
120000	0.909	-1.680	19.68
120100	0.912	-2.450	19.70
120200	0.917	-2.140	19.72
120300	0.911	-1.805	19.72
120399	0.896	-2.645	19.76
120499	0.996	-1.735	19.76
120599	0.930	-2.495	19.78
120700	0.986	-2.560	19.80
120799	1.007	-1.735	19.82
120899	1.003	-2.555	19.82
120999	0.988	-2.160	19.86
121100	1.047	-1.835	19.88
121199	0.986	-2.640	19.88
121300	0.988	-2.645	19.90
121400	0.981	-1.795	19.92
121499	0.946	-2.660	19.92
121600	0.989	-2.190	19.96
121700	1.009	-2.235	19.98
121799	0.922	-2.655	19.98
121899	1.167	-1.805	20.00
122000	1.444	-2.255	20.00
122099	10.547	-2.135	20.04
122199	10.547	-1.665	20.06
122299	10.547	-2.440	20.06
122399	10.547	-1.785	20.08
122500	10.547	-1.795	20.10
122599	10.547	-2.500	20.10
122700	10.547	-2.105	20.14
122800	10.547	-2.155	20.16
122899	10.547	-2.400	20.16
123000	10.547	-1.850	20.18
123100	10.547	-2.175	20.20
123200	10.547	-2.155	20.20
123299	10.547	-1.745	20.24
123400	10.547	-2.215	20.26
123500	10.547	-2.160	20.26
123600	1.007	-1.815	20.28
123699	0.967	-2.165	20.30
123799	0.993	-1.495	20.30
123900	1.002	-1.505	20.34
123999	0.965	-1.845	20.34
124101	0.989	-1.850	20.36
124200	1.012	-1.920	20.38
124299	1.059	-1.895	20.38
124399	0.996	-1.590	20.42
124500	0.964	-1.980	20.44
124599	1.046	-1.935	20.44
124699	0.978	-2.005	20.46
124800	0.969	-2.380	20.48
124899	0.982	-1.630	20.48
125000	0.974	-2.040	20.52
125100	0.948	-2.415	20.54
125199	1.034	-1.635	20.54
125300	1.032	-2.065	20.56
125399	1.028	-2.035	20.58
125499	1.047	-1.775	20.58
125599	1.046	-2.455	20.62
125699	2.099	-2.065	20.62
125799	10.547	-2.125	20.64
125899	10.547	-2.485	20.66
125999	10.547	-1.795	20.66
126099	10.547	-2.135	20.70
126200	10.547	-2.480	20.72
126300	10.547	-1.775	20.72
126399	10.547	-2.170	20.74
126499	10.547	-2.130	20.76
126599	10.547	-1.895	20.76
126699	10.547	-2.195	20.80
126799	10.547	-2.140	20.82
126900	10.547	-1.875	20.82
126999	10.547	-2.485	20.84
127100	10.547	-2.085	20.86
127200	10.547	-1.885	20.86
127300	10.547	-2.540	20.90
127399	10.547	-1.755	20.92
127500	10.547	-1.905	20.92
127599	10.547	-2.120	20.94
127699	10.547	-1.840	20.94
127800	10.547	-2.200	20.98
127899	10.547	-2.140	21.00
128000	10.547	-1.760	21.00
128100	10.547	-2.565	21.02
128199	10.547	-1.815	21.04
128300	10.547	-1.860	21.04
128400	10.547	-2.620	21.08
128499	10.547	-1.790	21.10
128599	10.547	-2.245	21.10
128700	10.547	-2.600	21.12
128799	10.547	-1.945	21.14
128899	10.547	-2.655	21.14
128999	10.547	-2.205	21.18
129099	10.547	-2.275	21.20
129200	10.547	-2.720	21.20
129299	10.547	-1.795	21.22
129399	10.547	-2.285	21.24
129499	10.547	-2.530	21.24
129599	10.547	-1.825	21.28
129700	10.547	-2.295	21.30
129799	10.547	-2.255	21.30
129899	10.547	-1.785	21.32
129998	10.547	-2.760	21.36
130099	10.547	-2.250	21.36
130200	10.547	-1.800	21.38
130299	10.547	-2.650	21.40
130400	10.547	-2.230	21.40
130499	10.547	-2.305	21.42
130600	10.547	-2.750	21.46
130699	10.547	-1.835	21.46
130799	10.547	-2.565	21.48
130900	10.547	-2.700	21.50
131000	10.547	-1.710	21.52
131100	10.547	-2.485	21.52
131200	10.547	-2.220	21.56
131300	10.547	-1.845	21.58
131400	10.547	-2.675	21.58
131500	10.547	-2.260	21.60
131599	10.547	-2.255	21.60
131699	10.547	-2.655	21.64
131799	10.547	-1.805	21.66
131898	10.547	-2.640	21.66
131999	10.547	-2.635	21.68
132100	10.547	-1.835	21.70
132199	10.547	-2.500	21.70
132299	10.547	-2.085	21.74
132399	10.547	-2.150	21.76
132500	10.547	-2.580	21.76
132599	10.547	-2.135	21.78
132699	10.547	-2.215	21.80
132800	10.547	-2.660	21.80
132899	10.547	-1.740	21.84
133000	10.547	-1.835	21.86
133099	10.547	-2.215	21.86
133199	10.547	-1.845	21.88
133299	10.547	-2.725	21.88
133400	10.547	-2.640	21.92
133500	10.547	-1.840	21.94
133599	10.547	-2.680	21.94
133700	10.547	-2.260	21.96
133800	10.547	-1.900	21.98
133900	10.547	-2.770	21.98
134000	10.547	-2.285	22.02
134099	10.547	-2.665	22.04
134200	10.547	-2.745	22.04
134300	10.547	-1.770	22.06
134399	10.547	-2.660	22.08
134499	10.547	-1.980	22.08
134599	10.547	-1.960	22.12
134699	10.547	-2.715	22.14
134800	10.547	-2.265	22.14
134900	10.547	-1.900	22.16
135000	10.547	-2.640	22.18
135099	10.547	-1.885	22.18
135200	10.547	-2.350	22.22
135299	10.547	-2.305	22.22
135399	10.547	-2.355	22.24
135500	10.547	-2.375	22.26
135599	10.547	-2.315	22.26
135700	10.547	-1.950	22.30
135800	10.547	-2.745	22.32
135900	10.547	-2.320	22.32
136000	10.547	-2.110	22.34
136099	10.547	-2.340	22.36
136199	10.547	-1.970	22.36
136300	10.547	-1.920	22.40
136400	10.547	-2.585	22.42
136499	10.547	-2.030	22.42
136601	10.547	-1.960	22.44
136699	10.547	-2.045	22.46
136799	10.547	-2.385	22.46
136899	10.547	-2.670	22.50
137000	10.547	-2.625	22.52
137099	10.547	-2.380	22.52
137199	10.547	-2.695	22.54
137300	10.547	-1.790	22.54
137399	10.547	-2.585	22.58
137500	10.547	-2.575	22.60
137600	10.547	-1.850	22.60
137700	10.547	-1.870	22.62
137800	10.547	-2.555	22.64
137899	10.547	-2.285	22.64
138000	10.547	-2.710	22.68
138100	10.547	-2.555	22.70
138199	10.547	-2.340	22.70
138300	10.547	-2.730	22.72
138400	10.547	-2.235	22.74
138499	10.547	-2.305	22.74
138599	10.547	-2.520	22.78
138700	10.547	-1.930	22.80
138799	10.547	-2.740	22.80
138899	10.547	-2.295	22.82
138999	10.547	-2.360	22.84
139100	10.547	-2.615	22.84
139200	10.547	-2.335	22.88
139299	10.547	-2.400	22.88
139400	10.547	-2.750	22.90
139500	10.547	-2.330	22.92
139600	10.547	-2.405	22.92
139700	10.547	-2.620	22.96
139799	10.547	-2.075	22.98
139900	10.547	-2.370	22.98
139999	10.547	-2.335	23.00
140100	10.547	-2.125	23.02
140199	10.547	-2.395	23.02
140299	10.547	-2.065	23.06
140400	10.547	-2.035	23.08
140500	10.547	-2.780	23.08
140599	10.547	-1.930	23.10
140700	10.547	-2.050	23.12
140800	10.547	-2.625	23.12
140900	10.547	-1.935	23.16
141001	10.547	-2.415	23.16
141100	10.547	-2.780	23.18
141199	10.547	-2.165	23.20
141300	10.547	-2.755	23.20
141399	10.547	-2.365	23.24
141498	10.547	-2.445	23.26
141599	10.547	-2.850	23.26
141700	10.547	-2.375	23.28
141800	10.547	-2.445	23.30
141900	10.547	-2.850	23.30
141999	10.547	-2.015	23.34
142100	10.547	-2.455	23.36
142199	10.547	-2.395	23.36
142300	10.547	-1.990	23.38
142400	10.547	-2.765	23.40
142499	10.547	-2.110	23.40
142600	10.547	-2.465	23.44
142700	10.547	-2.750	23.46
142799	10.547	-1.955	23.46
142900	10.547	-2.135	23.48
142999	10.547	-2.405	23.52
143099	10.547	-1.995	23.54
143200	10.547	-2.470	23.54
143300	10.547	-2.410	23.56
143400	10.547	-1.910	23.58
143500	10.547	-2.690	23.58
143600	10.547	-2.375	23.62
143700	10.547	-2.140	23.64
143799	10.547	-2.865	23.64
143900	10.547	-2.400	23.66
143999	10.547	-2.715	23.68
144100	10.547	-2.730	23.68
144199	10.547	-2.005	23.72
144300	10.547	-2.500	23.74
144400	10.547	-2.435	23.74
144500	10.547	-2.045	23.76
144600	10.547	-2.810	23.78
144700	10.547	-2.450	23.78
144799	10.547	-2.515	23.82
144900	10.547	-2.450	23.82
145000	10.547	-2.400	23.84
145100	10.547	-2.470	23.86
145200	10.547	-2.730	23.86
145298	10.547	-2.195	23.90
145399	10.547	-2.800	23.92
145499	10.547	-2.340	23.92
145601	10.547	-1.950	23.94
145699	10.547	-2.810	23.96
145800	10.547	-2.380	23.96
145900	10.547	-2.170	24.00
146000	10.547	-2.830	24.02
146099	10.547	-2.000	24.02
146200	10.547	-2.455	24.04
146300	10.547	-2.675	24.06
146398	10.547	-2.465	24.06
146500	10.547	-2.250	24.10
146599	10.547	-2.145	24.12
146699	10.547	-2.475	24.12
146800	10.547	-2.745	24.14
146900	10.547	-2.405	24.14
146999	10.547	-2.480	24.18
147100	10.547	-2.730	24.20
147200	10.547	-2.430	24.20
147299	10.547	-2.750	24.22
147400	10.547	-2.740	24.24
147498	10.547	-2.200	24.24
147599	10.547	-2.890	24.28
147700	10.547	-2.710	24.30
147800	10.547	-2.095	24.30
147900	10.547	-2.950	24.32
148000	10.547	-2.475	24.34
148100	10.547	-2.525	24.34
148201	10.547	-2.905	24.38
148300	10.547	-2.480	24.40
148400	10.547	-2.555	24.40
148499	10.547	-2.500	24.42
148600	10.547	-2.085	24.42
148700	10.547	-2.565	24.46
148799	10.547	-2.275	24.48
148899	10.547	-2.545	24.48
148999	10.547	-2.800	24.50
149099	10.547	-2.160	24.52
149199	10.547	-2.565	24.52
149299	10.547	-2.870	24.56
149400	10.547	-2.080	24.58
149499	10.547	-2.870	24.60
149600	10.547	-2.790	24.60
149699	10.547	-2.165	24.62
149800	10.547	-2.845	24.62
149900	10.547	-2.770	24.66
150000	10.547	-2.110	24.68
150099	10.547	-2.975	24.68
150199	10.547	-2.510	24.70
150300	10.547	-2.510	24.70
150399	10.547	-2.520	24.70
150500	10.547	-2.510	24.70
150599	10.547	-2.500	24.70
150699	10.547	-2.495	24.70
150800	10.547	-2.490	24.70
150900	10.547	-2.480	24.70
150999	10.547	-2.480	24.70
151100	10.547	-2.475	24.70
151200	10.547	-2.470	24.70
