Time(ms)	Voltage(V)	Force(N)	Distance(mm)
100	0.033	0.000	0.02
201	0.031	0.000	0.02
300	0.032	0.000	0.02
399	0.032	0.000	0.02
501	0.032	0.000	0.02
600	0.033	0.000	0.02
701	0.034	0.000	0.02
801	0.032	0.000	0.02
900	0.032	0.000	0.02
1001	0.032	0.000	0.02
1100	0.032	0.000	0.02
1199	0.029	0.000	0.02
1301	0.032	0.000	0.02
1401	0.031	0.000	0.02
1501	0.044	0.000	0.02
1601	0.031	0.000	0.02
1699	0.031	0.000	0.02
1801	0.031	0.000	0.02
1900	0.033	0.000	0.02
2001	0.032	0.000	0.02
2100	0.030	0.000	0.02
2200	0.032	0.000	0.02
2301	0.043	0.000	0.02
2400	0.031	0.000	0.02
2500	0.033	0.000	0.02
2600	0.032	0.000	0.02
2700	0.033	0.000	0.02
2800	0.032	0.000	0.02
2902	0.033	0.000	0.02
3000	0.032	0.000	0.02
3100	0.032	0.000	0.02
3201	0.033	0.230	0.02
3300	0.032	-0.035	0.04
3401	0.033	0.355	0.06
3500	0.032	-0.025	0.06
3600	0.032	0.020	0.10
3701	0.033	0.265	0.12
3801	0.033	-0.025	0.12
3900	0.033	0.010	0.14
4001	0.032	0.310	0.16
4101	0.039	-0.030	0.16
4201	0.031	0.015	0.20
4301	0.038	0.245	0.22
4401	0.031	-0.315	0.22
4501	0.034	0.025	0.24
4599	0.032	-0.030	0.26
4699	0.032	0.020	0.26
4800	0.032	0.005	0.30
4901	0.035	-0.025	0.30
5000	0.031	0.010	0.32
5099	0.033	-0.025	0.34
5201	0.025	-0.260	0.34
5301	0.032	0.015	0.38
5400	0.033	-0.035	0.40
5500	0.030	-0.310	0.40
5601	0.034	0.015	0.42
5700	0.031	-0.035	0.44
5800	0.031	-0.250	0.48
5901	0.033	0.270	0.48
6003	0.031	0.240	0.50
6099	0.034	0.010	0.52
6200	0.032	-0.010	0.52
6300	0.034	-0.260	0.54
6400	0.031	0.005	0.54
6499	0.033	-0.035	0.58
6600	0.033	-0.015	0.60
6700	0.032	0.225	0.60
6800	0.031	-0.040	0.62
6901	0.034	-0.010	0.66
7000	0.032	0.225	0.66
7100	0.026	-0.035	0.68
7201	0.031	-0.010	0.70
7301	0.031	-0.010	0.70
7401	0.033	-0.045	0.72
7500	0.033	-0.005	0.76
7599	0.033	-0.045	0.76
7699	0.032	-0.010	0.78
7800	0.032	-0.010	0.78
7901	0.033	-0.050	0.80
8000	0.032	-0.030	0.82
8100	0.031	-0.030	0.82
8200	0.033	-0.060	0.86
8301	0.032	-0.285	0.88
8401	0.033	-0.040	0.88
8500	0.027	-0.320	0.90
8600	0.030	-0.025	0.92
8701	0.029	-0.065	0.92
8801	0.031	-0.075	0.96
8901	0.033	-0.040	0.98
9001	0.033	-0.080	0.98
9101	0.033	-0.325	1.00
9199	0.032	-0.080	1.04
9300	0.031	-0.100	1.04
9401	0.036	-0.085	1.06
9500	0.032	-0.115	1.06
9600	0.032	-0.365	1.08
9701	0.031	-0.110	1.10
9801	0.032	-0.150	1.10
9901	0.032	-0.455	1.14
10000	0.031	-0.155	1.16
10100	0.033	-0.220	1.16
10200	0.033	-0.210	1.18
10300	0.031	-0.245	1.20
10399	0.031	-0.570	1.20
10500	0.031	-0.265	1.24
10601	0.031	-0.015	1.26
10700	0.032	-0.645	1.26
10801	0.032	-0.345	1.28
10900	0.031	-0.390	1.32
11001	0.032	-0.710	1.32
11099	0.033	-0.055	1.34
11200	0.032	-0.445	1.36
11300	0.031	-0.290	1.36
11399	0.033	0.020	1.38
11500	0.034	-0.590	1.42
11600	0.033	-0.330	1.42
11700	0.033	-0.385	1.44
11799	0.032	-0.415	1.46
11900	0.034	-0.385	1.48
12000	0.030	-0.060	1.48
12101	0.035	-0.460	1.52
12201	0.035	-0.425	1.54
12299	0.035	-0.220	1.54
12400	0.035	-0.765	1.56
12500	0.036	-0.090	1.56
12600	0.036	-0.480	1.60
12700	0.036	-0.755	1.62
12800	0.035	-0.145	1.62
12901	0.030	-0.520	1.64
13001	0.030	-0.740	1.66
13100	0.031	-0.185	1.66
13201	0.034	-0.510	1.70
13300	0.035	-0.460	1.72
13400	0.036	-0.510	1.72
13500	0.036	-0.835	1.74
13600	0.038	-0.220	1.76
13701	0.032	-0.555	1.76
13800	0.036	-0.795	1.80
13900	0.036	-0.215	1.82
14001	0.035	-0.470	1.82
14100	0.037	-0.380	1.84
14199	0.038	-0.455	1.86
14301	0.037	-0.085	1.86
14401	0.038	-0.435	1.90
14501	0.039	-0.480	1.90
14600	0.036	-0.810	1.92
14700	0.040	-0.220	1.94
14801	0.040	-0.520	1.94
14900	0.040	-0.505	1.98
15001	0.040	-0.235	2.00
15100	0.041	-0.850	2.00
15201	0.042	-0.545	2.02
15299	0.041	-0.580	2.04
15401	0.038	-0.600	2.04
15501	0.042	-0.560	2.08
15600	0.041	-0.605	2.10
15700	0.043	-0.830	2.10
15801	0.042	-0.565	2.12
15901	0.042	-0.605	2.14
16000	0.042	-0.590	2.14
16101	0.046	-0.270	2.18
16199	0.042	-0.995	2.20
16300	0.044	-0.600	2.20
16400	0.043	-0.630	2.22
16500	0.043	-0.945	2.22
16600	0.044	-0.580	2.26
16700	0.045	-0.635	2.28
16801	0.044	-0.865	2.28
16900	0.045	-0.115	2.30
16999	0.044	-0.555	2.32
17101	0.045	-0.935	2.32
17201	0.048	-0.205	2.36
17300	0.046	-0.965	2.38
17399	0.047	-0.575	2.38
17500	0.043	-0.385	2.40
17600	0.048	-0.385	2.42
17701	0.046	-0.605	2.46
17799	0.045	-0.920	2.46
17901	0.044	-0.930	2.48
18001	0.047	-0.365	2.50
18100	0.047	-0.675	2.50
18199	0.056	-0.635	2.52
18300	0.049	-0.430	2.56
18401	0.054	-0.695	2.56
18500	0.051	-0.620	2.58
18601	0.051	-0.350	2.60
18701	0.050	-0.655	2.60
18801	0.051	-0.620	2.64
18901	0.052	-0.410	2.66
19000	0.053	-0.665	2.66
19101	0.054	-0.365	2.68
19200	0.056	-0.705	2.68
19301	0.054	-0.605	2.70
19401	0.055	-0.375	2.74
19500	0.056	-0.670	2.74
19601	0.055	-0.645	2.76
19700	0.058	-0.680	2.78
19801	0.056	-0.960	2.78
19901	0.057	-0.670	2.80
20000	0.057	-0.710	2.80
20101	0.056	-0.715	2.84
20200	0.057	-0.405	2.86
20301	0.057	-0.725	2.86
20400	0.059	-0.700	2.88
20500	0.060	-0.465	2.92
20601	0.059	-0.760	2.92
20701	0.063	-0.725	2.94
20800	0.059	-0.765	2.96
20899	0.058	-0.740	2.96
21000	0.063	-0.505	2.98
21101	0.062	-0.475	3.02
21201	0.066	-0.980	3.02
21301	0.066	-0.720	3.04
21401	0.067	-0.775	3.06
21501	0.065	-1.015	3.06
21599	0.068	-0.775	3.08
21701	0.065	-0.510	3.12
21801	0.065	-1.020	3.12
21900	0.065	-0.810	3.14
21999	0.066	-1.060	3.14
22100	0.065	-0.765	3.16
22200	0.061	-0.825	3.20
22300	0.062	-0.790	3.20
22399	0.073	-0.460	3.22
22500	0.061	-0.840	3.24
22601	0.065	-1.075	3.24
22700	0.070	-0.565	3.26
22800	0.069	-0.665	3.30
22900	0.069	-0.625	3.30
23001	0.069	-0.380	3.32
23101	0.070	-0.955	3.34
23200	0.068	-0.355	3.34
23301	0.072	-0.705	3.36
23401	0.074	-0.980	3.40
23500	0.072	-0.375	3.42
23600	0.070	-0.925	3.42
23700	0.069	-0.660	3.44
23801	0.072	-0.315	3.46
23900	0.070	-0.985	3.46
24001	0.075	-0.955	3.50
24101	0.080	-0.415	3.50
24200	0.076	-0.980	3.52
24300	0.076	-0.300	3.54
24401	0.079	-0.410	3.54
24501	0.074	-1.070	3.58
24601	0.073	-0.360	3.60
24701	0.072	-0.720	3.60
24801	0.072	-0.985	3.62
24900	0.071	-0.460	3.64
24999	0.071	-1.170	3.64
25101	0.071	-0.965	3.68
25201	0.074	-0.380	3.70
25300	0.067	-1.180	3.70
25401	0.073	-0.750	3.72
25500	0.084	-0.790	3.74
25600	0.074	-1.045	3.74
25701	0.076	-0.760	3.78
25801	0.073	-0.815	3.80
25900	0.075	-0.770	3.80
26001	0.079	-0.435	3.82
26101	0.074	-0.850	3.82
26200	0.085	-0.800	3.86
26301	0.078	-0.490	3.88
26401	0.087	-1.095	3.88
26500	0.076	-0.425	3.90
26600	0.080	-0.770	3.92
26700	0.076	-0.740	3.92
26800	0.082	-0.385	3.96
26900	0.081	-0.820	3.98
27001	0.086	-1.175	4.00
27101	0.083	-0.455	4.00
27199	0.092	-1.210	4.02
27301	0.088	-0.820	4.02
27401	0.090	-0.510	4.06
27501	0.089	-1.215	4.08
27599	0.090	-0.820	4.08
27701	0.090	-0.535	4.10
27800	0.097	-1.175	4.14
27900	0.088	-0.455	4.14
28001	0.088	-0.875	4.16
28101	0.086	-1.255	4.18
28199	0.087	-0.880	4.18
28301	0.097	-0.890	4.20
28400	0.097	-0.680	4.24
28501	0.097	-0.365	4.24
28600	0.095	-1.080	4.26
28700	0.097	-0.455	4.26
28801	0.098	-0.475	4.28
28901	0.097	-1.060	4.30
29001	0.097	-0.480	4.30
29100	0.096	-1.115	4.34
29200	0.097	-0.745	4.36
29300	0.095	-0.795	4.36
29401	0.086	-0.825	4.38
29501	0.093	-1.185	4.40
29601	0.097	-0.510	4.40
29701	0.094	-0.765	4.44
29801	0.093	-0.745	4.46
29901	0.094	-0.775	4.48
30001	0.095	-1.120	4.48
30101	0.095	-0.765	4.52
30201	0.094	-0.830	4.54
30300	0.094	-0.795	4.54
30401	0.097	-0.475	4.56
30499	0.096	-1.190	4.58
30601	0.096	-0.835	4.58
30701	0.097	-0.605	4.62
30801	0.097	-1.105	4.64
30901	0.096	-0.810	4.64
31001	0.096	-0.860	4.66
31100	0.101	-0.860	4.66
31200	0.098	-0.520	4.68
31300	0.101	-1.165	4.72
31401	0.092	-0.870	4.72
31501	0.101	-0.530	4.74
31600	0.106	-1.130	4.76
31701	0.100	-0.855	4.76
31801	0.100	-0.655	4.80
31901	0.098	-1.170	4.82
32000	0.102	-0.845	4.82
32100	0.099	-0.905	4.84
32200	0.098	-0.875	4.84
32301	0.092	-0.580	4.86
32400	0.100	-1.150	4.90
32501	0.101	-0.895	4.90
32600	0.101	-0.910	4.92
32701	0.101	-1.205	4.94
32799	0.113	-0.620	4.94
32901	0.110	-0.685	4.96
33001	0.108	-1.175	5.00
33099	0.112	-0.655	5.00
33201	0.107	-0.930	5.02
33301	0.105	-1.215	5.04
33401	0.112	-0.615	5.04
33501	0.108	-0.965	5.06
33601	0.117	-1.225	5.10
33701	0.120	-0.625	5.10
33801	0.123	-0.985	5.12
33900	0.119	-0.930	5.14
34001	0.126	-0.530	5.14
34101	0.135	-1.115	5.18
34200	0.124	-0.755	5.18
34301	0.125	-0.780	5.20
34400	0.123	-1.040	5.22
34500	0.122	-0.495	5.24
34600	0.124	-1.155	5.24
34700	0.123	-0.815	5.28
34800	0.124	-0.595	5.28
34900	0.121	-1.235	5.30
35000	0.119	-0.825	5.32
35100	0.121	-0.875	5.32
35201	0.122	-1.225	5.34
35301	0.124	-0.600	5.38
35401	0.125	-0.915	5.38
35500	0.126	-0.885	5.40
35601	0.135	-0.875	5.42
35699	0.135	-1.275	5.42
35801	0.136	-1.265	5.46
35900	0.148	-0.625	5.48
36001	0.135	-1.260	5.48
36100	0.135	-0.905	5.50
36200	0.145	-0.665	5.52
36300	0.175	-1.235	5.52
36401	0.182	-0.910	5.56
36500	0.222	-0.970	5.58
36601	0.229	-1.325	5.58
36700	0.224	-0.575	5.60
36801	0.216	-0.990	5.62
36899	0.188	-0.935	5.62
37000	0.146	-0.650	5.66
37101	0.142	-0.705	5.68
37201	0.164	-0.955	5.68
37300	0.162	-0.735	5.70
37401	0.137	-1.345	5.70
37501	0.127	-0.965	5.74
37600	0.121	-1.020	5.76
37700	0.116	-1.310	5.76
37801	0.128	-0.660	5.78
37901	0.126	-1.025	5.80
38001	0.120	-1.335	5.80
38101	0.121	-0.625	5.84
38199	0.121	-1.430	5.86
38300	0.121	-0.985	5.86
38400	0.125	-1.040	5.88
38501	0.119	-1.405	5.90
38601	0.122	-1.005	5.90
38700	0.123	-1.310	5.94
38801	0.123	-1.410	5.96
38901	0.123	-1.005	5.98
39000	0.126	-1.420	5.98
39100	0.129	-1.015	6.00
39200	0.130	-0.790	6.04
39300	0.127	-1.305	6.04
39400	0.129	-0.950	6.06
39500	0.133	-0.735	6.06
39600	0.129	-1.400	6.08
39700	0.131	-0.615	6.12
39801	0.132	-1.025	6.12
39900	0.126	-1.010	6.14
40000	0.138	-0.655	6.16
40101	0.133	-1.070	6.16
40199	0.148	-1.025	6.18
40300	0.143	-0.705	6.22
40401	0.136	-1.095	6.22
40501	0.136	-1.375	6.24
40600	0.142	-0.730	6.26
40700	0.140	-1.485	6.26
40800	0.143	-1.040	6.28
40901	0.142	-1.070	6.32
41000	0.144	-1.315	6.32
41101	0.147	-1.405	6.34
41201	0.141	-1.095	6.36
41300	0.148	-1.060	6.36
41400	0.151	-0.810	6.40
41500	0.145	-1.465	6.42
41601	0.147	-1.085	6.42
41700	0.135	-1.125	6.44
41800	0.140	-1.470	6.46
41901	0.149	-1.095	6.46
42001	0.161	-1.125	6.50
42101	0.163	-1.425	6.52
42201	0.154	-0.745	6.52
42300	0.147	-1.060	6.54
42401	0.145	-1.190	6.56
42500	0.143	-0.875	6.56
42601	0.146	-1.195	6.60
42700	0.144	-0.875	6.62
42800	0.151	-0.925	6.62
42901	0.148	-1.285	6.64
43000	0.154	-0.645	6.64
43101	0.153	-0.955	6.68
43201	0.152	-1.285	6.70
43301	0.151	-0.650	6.70
43400	0.148	-1.005	6.72
43500	0.149	-0.965	6.74
43601	0.148	-0.645	6.74
43700	0.150	-1.370	6.78
43800	0.149	-0.685	6.80
43900	0.151	-1.050	6.80
44001	0.140	-1.365	6.82
44101	0.149	-1.020	6.84
44201	0.148	-0.805	6.84
44301	0.149	-1.380	6.88
44400	0.148	-0.820	6.90
44501	0.145	-1.105	6.90
44601	0.150	-1.355	6.92
44700	0.148	-1.065	6.94
44800	0.139	-1.460	6.94
44901	0.148	-1.080	6.98
45000	0.145	-1.105	6.98
45100	0.139	-1.055	7.00
45200	0.143	-0.750	7.02
45300	0.141	-1.030	7.02
45400	0.138	-1.010	7.06
45500	0.138	-0.790	7.08
45601	0.139	-1.080	7.08
45701	0.139	-1.055	7.10
45800	0.142	-0.840	7.12
45901	0.139	-1.115	7.12
46001	0.150	-1.075	7.16
46102	0.147	-0.780	7.18
46201	0.146	-1.135	7.18
46301	0.143	-1.085	7.20
46400	0.148	-1.145	7.22
46501	0.147	-1.115	7.22
46601	0.150	-1.105	7.26
46701	0.152	-1.150	7.28
46800	0.151	-1.390	7.28
46900	0.152	-1.115	7.30
47001	0.147	-1.160	7.30
47100	0.146	-1.115	7.34
47200	0.150	-1.165	7.36
47301	0.153	-1.590	7.36
47401	0.158	-1.120	7.38
47501	0.154	-0.865	7.40
47601	0.159	-1.440	7.40
47700	0.159	-0.705	7.44
47800	0.157	-1.525	7.46
47900	0.159	-1.100	7.46
48000	0.162	-0.745	7.48
48100	0.160	-1.570	7.50
48200	0.162	-0.875	7.50
48300	0.160	-1.195	7.54
48401	0.166	-1.510	7.56
48501	0.153	-1.145	7.56
48600	0.158	-1.210	7.58
48701	0.157	-1.465	7.60
48801	0.160	-0.790	7.60
48900	0.160	-1.570	7.64
49000	0.165	-1.480	7.64
49100	0.164	-0.850	7.66
49200	0.169	-1.550	7.68
49300	0.171	-1.170	7.72
49400	0.168	-1.235	7.72
49501	0.180	-1.545	7.74
49601	0.169	-1.185	7.76
49700	0.169	-1.160	7.76
49800	0.176	-1.145	7.78
49900	0.183	-0.805	7.82
50000	0.179	-1.470	7.82
50100	0.181	-1.170	7.84
50201	0.180	-0.850	7.86
50301	0.170	-1.200	7.86
50400	0.175	-1.130	7.88
50501	0.201	-0.870	7.92
50600	0.192	-1.495	7.92
50701	0.189	-1.165	7.94
50801	0.210	-0.945	7.96
50900	0.190	-1.180	7.96
51000	0.192	-0.800	8.00
51100	0.200	-1.505	8.02
51200	0.205	-1.195	8.02
51300	0.188	-0.975	8.04
51400	0.183	-1.540	8.06
51501	0.181	-1.070	8.06
51600	0.185	-1.115	8.10
51700	0.193	-1.380	8.10
51800	0.193	-0.735	8.12
51900	0.212	-1.145	8.14
52000	0.212	-1.140	8.14
52100	0.217	-0.810	8.16
52201	0.215	-1.200	8.20
52300	0.233	-1.155	8.20
52400	0.271	-0.825	8.22
52501	0.223	-1.220	8.24
52600	0.194	-0.885	8.24
52700	0.214	-1.140	8.28
52800	0.216	-1.515	8.30
52900	0.218	-0.765	8.30
53000	0.197	-1.455	8.32
53101	0.203	-1.450	8.34
53200	0.231	-0.800	8.34
53300	0.231	-1.210	8.38
53400	0.224	-1.165	8.40
53499	0.239	-1.205	8.40
53600	0.232	-1.520	8.42
53701	0.245	-1.190	8.44
53800	0.237	-1.235	8.44
53900	0.251	-1.600	8.48
54001	0.279	-1.185	8.50
54100	0.252	-1.240	8.50
54201	0.276	-1.490	8.52
54301	0.359	-0.930	8.54
54400	0.278	-1.485	8.54
54500	0.179	-1.220	8.58
54600	0.178	-1.025	8.58
54701	0.176	-1.060	8.60
54799	0.183	-0.745	8.62
54900	0.189	-1.085	8.62
55001	0.188	-1.375	8.66
55101	0.199	-0.825	8.68
55199	0.221	-1.380	8.68
55300	0.232	-1.105	8.70
55400	0.236	-0.800	8.72
55500	0.228	-1.455	8.72
55600	0.279	-1.145	8.76
55700	0.270	-0.915	8.78
55800	0.248	-1.500	8.78
55900	0.252	-1.165	8.80
56001	0.255	-0.880	8.82
56101	0.246	-1.545	8.82
56201	0.264	-0.945	8.86
56301	0.267	-0.925	8.88
56401	0.263	-1.530	8.88
56501	0.277	-0.920	8.90
56600	0.269	-1.495	8.90
56701	0.247	-1.465	8.94
56801	0.257	-0.925	8.96
56900	0.286	-1.520	8.96
57000	0.297	-1.200	8.98
57100	0.308	-1.235	9.00
57200	0.277	-1.240	9.00
57301	0.300	-1.205	9.04
57399	0.275	-1.260	9.06
57501	0.283	-1.475	9.06
57600	0.302	-0.960	9.08
57700	0.303	-1.275	9.10
57801	0.315	-1.525	9.10
57900	0.225	-1.260	9.14
58001	0.226	-1.175	9.16
58101	0.243	-1.165	9.16
58201	0.266	-0.950	9.18
58301	0.268	-1.520	9.18
58400	0.263	-0.915	9.22
58500	0.254	-1.475	9.24
58600	0.245	-1.225	9.24
58700	0.227	-0.880	9.26
58801	0.224	-1.100	9.28
58901	0.224	-1.090	9.28
59001	0.228	-0.850	9.32
59101	0.234	-1.150	9.34
59200	0.240	-0.830	9.34
59301	0.240	-1.160	9.36
59400	0.247	-1.475	9.38
59501	0.251	-1.130	9.38
59600	0.285	-1.375	9.42
59701	0.292	-1.305	9.44
59800	0.299	-0.660	9.44
59900	0.283	-1.445	9.46
60000	0.283	-1.385	9.48
60101	0.309	-0.730	9.48
60201	0.264	-1.125	9.52
60300	0.276	-0.630	9.54
60399	0.266	-1.030	9.54
60500	0.254	-1.370	9.56
60600	0.272	-0.630	9.60
60700	0.266	-1.340	9.60
60800	0.275	-1.435	9.62
60900	0.278	-0.665	9.64
61000	0.288	-1.470	9.64
61101	0.302	-1.315	9.66
61201	0.302	-0.770	9.70
61301	0.297	-1.415	9.70
61401	0.312	-1.100	9.72
61501	0.284	-0.855	9.74
61601	0.282	-1.465	9.76
61700	0.434	-0.760	9.76
61801	0.252	-1.195	9.80
61901	0.267	-1.390	9.80
62001	0.306	-1.155	9.82
62100	0.446	-1.495	9.84
62201	0.392	-1.175	9.84
62301	0.385	-0.925	9.88
62400	0.387	-1.585	9.90
62500	0.313	-0.940	9.90
62600	0.306	-1.245	9.92
62701	0.309	-1.530	9.94
62800	0.299	-0.825	9.94
62901	0.302	-1.230	9.98
63000	0.305	-1.195	10.00
63101	0.306	-1.195	10.00
63201	0.316	-1.260	10.02
63300	0.332	-1.210	10.04
63399	0.281	-0.975	10.04
63500	0.250	-1.620	10.08
63601	0.248	-1.230	10.10
63701	0.237	-1.015	10.10
63801	0.240	-1.285	10.12
63901	0.234	-0.930	10.14
64001	0.233	-1.265	10.14
64100	0.234	-1.255	10.18
64201	0.232	-0.880	10.18
64301	0.220	-1.305	10.20
64400	0.219	-1.190	10.22
64500	0.226	-0.975	10.22
64600	0.218	-1.615	10.26
64700	0.214	-1.215	10.28
64800	0.209	-0.875	10.28
64901	0.217	-1.670	10.30
65001	0.215	-0.995	10.32
65099	0.221	-1.300	10.32
65201	0.231	-1.560	10.36
65301	0.222	-0.915	10.38
65400	0.218	-1.585	10.38
65500	0.220	-1.220	10.40
65601	0.234	-0.935	10.42
65700	0.296	-1.605	10.42
65800	0.306	-0.945	10.46
65901	0.293	-1.005	10.46
66000	0.293	-1.255	10.48
66101	0.297	-1.205	10.50
66201	0.302	-1.275	10.50
66300	0.323	-1.245	10.54
66402	0.313	-1.250	10.56
66501	0.312	-1.305	10.56
66601	0.310	-1.275	10.58
66699	0.306	-1.305	10.60
66800	0.291	-1.630	10.60
66901	0.270	-1.155	10.64
67001	0.280	-1.205	10.66
67101	0.289	-1.245	10.66
67201	0.331	-1.200	10.68
67301	0.313	-1.255	10.70
67401	0.308	-1.540	10.70
67500	0.282	-0.990	10.74
67600	0.262	-1.575	10.76
67700	0.236	-1.250	10.76
67802	0.237	-0.995	10.78
67901	0.230	-1.320	10.78
68001	0.223	-1.275	10.82
68100	0.221	-1.200	10.84
68201	0.221	-1.220	10.84
68301	0.219	-1.180	10.86
68400	0.211	-1.245	10.88
68501	0.202	-1.235	10.88
68601	0.199	-1.220	10.92
68700	0.196	-1.280	10.94
68801	0.220	-1.265	10.94
68901	0.221	-1.005	10.96
69001	0.214	-1.315	10.98
69100	0.216	-1.265	10.98
69200	0.215	-1.325	11.02
69300	0.221	-1.600	11.04
69400	0.216	-1.030	11.04
69501	0.213	-1.325	11.06
69600	0.222	-1.550	11.08
69700	0.217	-1.005	11.08
69801	0.219	-1.340	11.12
69901	0.209	-1.655	11.14
70001	0.217	-1.000	11.14
70100	0.208	-1.665	11.16
70200	0.212	-1.320	11.20
70300	0.210	-1.365	11.20
70400	0.222	-1.320	11.22
70500	0.191	-0.830	11.24
70600	0.190	-1.445	11.24
70701	0.192	-1.215	11.26
70800	0.200	-0.840	11.30
70900	0.201	-1.515	11.30
71000	0.199	-1.205	11.32
71101	0.199	-0.955	11.34
71201	0.199	-1.540	11.34
71300	0.198	-0.965	11.36
71400	0.197	-1.310	11.40
71501	0.196	-1.610	11.40
71600	0.196	-0.910	11.42
71700	0.197	-1.555	11.44
71801	0.204	-1.655	11.44
71900	0.200	-0.835	11.48
72001	0.199	-1.215	11.50
72100	0.199	-1.170	11.50
72200	0.200	-1.225	11.52
72301	0.203	-1.260	11.54
72400	0.201	-0.960	11.54
72501	0.201	-0.980	11.58
72601	0.195	-1.615	11.60
72699	0.191	-0.920	11.60
72801	0.196	-1.285	11.62
72900	0.195	-1.255	11.64
72999	0.202	-0.885	11.64
73100	0.192	-1.590	11.68
73201	0.194	-1.540	11.70
73301	0.207	-0.955	11.70
73400	0.208	-1.710	11.72
73500	0.212	-1.295	11.72
73601	0.213	-1.055	11.76
73700	0.220	-1.600	11.78
73800	0.210	-1.310	11.78
73900	0.220	-1.385	11.80
74001	0.212	-1.710	11.82
74102	0.217	-1.330	11.82
74200	0.209	-1.395	11.86
74301	0.213	-1.315	11.88
74401	0.224	-0.975	11.88
74500	0.213	-1.695	11.90
74600	0.213	-1.320	11.92
74700	0.206	-1.390	11.92
74801	0.213	-1.720	11.96
74902	0.213	-1.345	11.98
75001	0.209	-1.380	11.98
75101	0.213	-1.735	12.00
75201	0.225	-0.995	12.02
75300	0.206	-1.410	12.02
75400	0.208	-1.365	12.06
75501	0.218	-1.065	12.06
75600	0.216	-1.715	12.08
75700	0.209	-1.340	12.10
75801	0.213	-1.110	12.10
75901	0.230	-1.700	12.14
76000	0.232	-1.100	12.16
76101	0.267	-1.415	12.16
76201	0.257	-1.630	12.18
76300	0.203	-1.045	12.20
76401	0.204	-1.610	12.20
76502	0.212	-1.625	12.24
76600	0.217	-1.155	12.26
76701	0.212	-1.650	12.26
76800	0.214	-1.070	12.28
76900	0.222	-1.415	12.30
77000	0.207	-1.630	12.30
77100	0.214	-1.080	12.34
77200	0.206	-1.440	12.36
77300	0.208	-1.370	12.36
77401	0.214	-1.030	12.38
77500	0.208	-1.735	12.38
77601	0.204	-1.670	12.42
77700	0.206	-1.370	12.44
77801	0.203	-1.660	12.46
77901	0.210	-1.380	12.46
78000	0.208	-1.415	12.48
78101	0.209	-1.770	12.52
78201	0.219	-1.395	12.52
78301	0.207	-1.190	12.54
78400	0.206	-1.425	12.56
78500	0.208	-1.090	12.56
78600	0.217	-1.780	12.58
78700	0.226	-1.420	12.62
78801	0.217	-1.120	12.62
78900	0.219	-1.775	12.64
79000	0.221	-1.175	12.64
79101	0.222	-1.450	12.66
79201	0.227	-1.755	12.68
79301	0.227	-1.425	12.68
79401	0.214	-1.400	12.72
79501	0.207	-1.680	12.74
79600	0.210	-1.075	12.74
79700	0.212	-1.710	12.76
79800	0.219	-1.410	12.80
79900	0.210	-1.425	12.80
80001	0.207	-1.450	12.82
80100	0.204	-1.160	12.82
80201	0.209	-1.450	12.84
80301	0.208	-1.750	12.86
80402	0.211	-1.430	12.86
80501	0.209	-1.465	12.90
80601	0.207	-1.740	12.92
80701	0.231	-1.435	12.92
80800	0.231	-1.775	12.94
80901	0.234	-1.775	12.96
81001	0.233	-1.170	12.96
81101	0.226	-1.740	13.00
81200	0.225	-1.435	13.02
81300	0.274	-1.480	13.02
81400	0.262	-1.725	13.04
81501	0.227	-1.440	13.04
81601	0.218	-1.365	13.08
81701	0.219	-1.675	13.10
81801	0.217	-1.100	13.10
81901	0.216	-1.390	13.12
82001	0.228	-1.370	13.14
82101	0.228	-1.080	13.14
82201	0.229	-1.435	13.18
82301	0.236	-1.830	13.20
82401	0.272	-1.100	13.20
82501	0.402	-1.820	13.22
82600	0.406	-1.050	13.24
82701	0.406	-1.185	13.24
82800	0.395	-1.450	13.28
82901	0.396	-0.970	13.30
83000	0.394	-1.415	13.30
83100	0.396	-1.375	13.32
83200	0.399	-1.010	13.36
83301	0.398	-1.785	13.36
83399	0.400	-1.060	13.38
83501	0.360	-1.090	13.40
83600	0.360	-1.800	13.40
83700	0.359	-1.055	13.42
83800	0.357	-1.725	13.46
83901	0.354	-1.735	13.48
84000	0.356	-1.085	13.48
84101	0.357	-1.480	13.50
84200	0.357	-1.435	13.52
84300	0.359	-1.470	13.52
84400	0.354	-1.880	13.56
84500	0.355	-1.070	13.58
84600	0.360	-1.505	13.58
84700	0.356	-1.815	13.60
84800	0.356	-1.090	13.62
84900	0.367	-1.770	13.62
85001	0.353	-1.880	13.66
85101	0.359	-1.145	13.66
85200	0.355	-1.920	13.68
85301	0.356	-1.495	13.70
85401	0.358	-1.140	13.70
85500	0.358	-1.900	13.74
85601	0.360	-1.495	13.76
85700	0.352	-1.545	13.76
85800	0.362	-1.900	13.78
85900	0.358	-1.130	13.80
86001	0.358	-1.310	13.80
86101	0.358	-1.795	13.84
86199	0.359	-1.150	13.86
86300	0.362	-1.510	13.86
86400	0.358	-1.450	13.88
86500	0.360	-1.505	13.90
86600	0.359	-1.885	13.90
86701	0.355	-1.490	13.94
86800	0.355	-1.545	13.96
86901	0.364	-1.910	13.96
87000	0.360	-1.155	13.98
87100	0.362	-1.560	13.98
87200	0.363	-1.485	14.02
87300	0.361	-1.290	14.04
87400	0.361	-1.870	14.04
87501	0.360	-1.530	14.06
87601	0.367	-1.175	14.08
87700	0.360	-1.855	14.08
87801	0.362	-1.525	14.12
87901	0.361	-1.215	14.14
88001	0.360	-1.915	14.14
88101	0.358	-1.300	14.16
88200	0.363	-1.600	14.18
88301	0.364	-1.800	14.18
88401	0.362	-1.550	14.22
88500	0.363	-1.865	14.24
88601	0.362	-1.840	14.24
88700	0.225	-1.600	14.26
88800	0.216	-1.815	14.26
88900	0.215	-1.640	14.30
89001	0.215	-1.295	14.32
89099	0.209	-1.285	14.32
89200	0.214	-0.955	14.34
89301	0.214	-1.070	14.36
89400	0.212	-1.310	14.36
89499	0.219	-1.090	14.40
89601	0.208	-1.380	14.42
89701	0.217	-1.355	14.42
89800	0.219	-1.400	14.44
89900	0.227	-1.770	14.46
90000	0.213	-1.125	14.50
90101	0.219	-1.415	14.50
90201	0.214	-1.780	14.52
90301	0.213	-1.405	14.54
90401	0.216	-1.465	14.54
90500	0.222	-1.440	14.56
90600	0.230	-1.170	14.60
90701	0.230	-1.500	14.60
90800	0.271	-1.465	14.62
90901	0.257	-1.140	14.62
91001	0.342	-1.860	14.64
91100	0.363	-1.470	14.68
91201	0.363	-1.215	14.68
91300	0.362	-1.850	14.70
91400	0.250	-1.165	14.72
91501	0.362	-1.285	14.72
91601	0.267	-1.845	14.74
91701	0.267	-1.195	14.78
91801	0.241	-1.560	14.78
91900	0.244	-1.510	14.80
92001	0.248	-1.180	14.82
92100	0.234	-1.810	14.82
92201	0.225	-1.860	14.84
92300	0.229	-1.565	14.84
92401	0.232	-1.900	14.88
92501	0.266	-1.535	14.90
92601	0.362	-1.580	14.90
92701	0.363	-1.805	14.92
92801	0.358	-1.250	14.96
92901	0.365	-1.615	14.98
93001	0.365	-1.580	14.98
93100	0.364	-1.430	15.00
93200	0.367	-1.800	15.02
93301	0.379	-1.400	15.02
93400	0.354	-1.160	15.06
93501	0.369	-1.845	15.08
93601	0.375	-1.205	15.08
93701	0.354	-1.465	15.10
93801	0.370	-1.465	15.12
93900	0.283	-0.875	15.12
94001	0.254	-1.345	15.16
94101	0.264	-1.325	15.18
94201	0.368	-0.995	15.18
94300	0.364	-1.720	15.20
94401	0.367	-1.355	15.22
94500	0.366	-1.415	15.22
94601	0.367	-1.785	15.26
94702	0.367	-1.685	15.26
94800	0.375	-1.460	15.28
94901	0.366	-1.875	15.30
95000	0.362	-1.120	15.30
95101	0.369	-1.490	15.34
95201	0.366	-1.845	15.36
95300	0.368	-1.130	15.36
95400	0.368	-1.880	15.38
95501	0.366	-1.725	15.40
95601	0.367	-1.090	15.40
95701	0.365	-1.950	15.44
95800	0.369	-1.095	15.46
95901	0.369	-1.310	15.46
96001	0.369	-1.870	15.48
96100	0.369	-1.245	15.50
96200	0.361	-1.935	15.50
96300	0.366	-1.530	15.54
96400	0.368	-1.575	15.54
96500	0.365	-1.935	15.56
96600	0.362	-1.320	15.58
96701	0.350	-1.230	15.58
96800	0.366	-1.920	15.62
96901	0.367	-1.215	15.64
97001	0.367	-1.625	15.64
97100	0.370	-1.840	15.66
97200	0.366	-1.190	15.68
97301	0.364	-1.635	15.72
97401	0.272	-1.590	15.72
97500	0.255	-1.465	15.74
97601	0.268	-1.485	15.74
97701	0.366	-1.445	15.76
97799	0.263	-1.515	15.78
97901	0.366	-1.825	15.82
98000	0.367	-1.165	15.82
98100	0.368	-1.540	15.84
98201	0.369	-1.770	15.86
98300	0.368	-1.250	15.86
98401	0.373	-1.580	15.90
98500	0.367	-1.530	15.92
98601	0.369	-1.310	15.92
98701	0.366	-1.605	15.94
98800	0.367	-1.560	15.96
98901	0.367	-1.600	15.96
99000	0.371	-1.580	16.00
99101	0.371	-1.570	16.02
99201	0.365	-1.630	16.02
99300	0.371	-1.535	16.04
99402	0.369	-1.505	16.06
99500	0.368	-1.880	16.06
99600	0.367	-1.525	16.10
99701	0.369	-1.215	16.12
99800	0.368	-1.865	16.12
99900	0.366	-1.555	16.14
100000	0.369	-1.585	16.14
100100	0.369	-1.915	16.16
100200	0.365	-1.195	16.20
100300	0.369	-1.630	16.20
100401	0.369	-1.950	16.22
100500	0.367	-1.215	16.24
100600	0.370	-1.990	16.24
100700	0.367	-1.585	16.28
100801	0.367	-1.235	16.30
100901	0.368	-2.015	16.30
101000	0.367	-1.590	16.32
101101	0.367	-1.330	16.34
101201	0.362	-2.005	16.34
101301	0.368	-1.285	16.38
101400	0.370	-1.925	16.40
101501	0.371	-1.970	16.40
101601	0.369	-1.280	16.42
101700	0.370	-1.975	16.44
101801	0.367	-1.930	16.44
101900	0.369	-1.675	16.48
102000	0.369	-2.005	16.50
102101	0.378	-1.600	16.50
102201	0.371	-1.390	16.52
102300	0.362	-1.575	16.52
102400	0.371	-1.260	16.56
102500	0.372	-1.625	16.58
102601	0.369	-1.825	16.58
102700	0.368	-1.265	16.60
102801	0.371	-1.930	16.62
102900	0.369	-1.570	16.62
103001	0.370	-1.265	16.66
103101	0.369	-2.000	16.68
103200	0.369	-1.605	16.68
103301	0.368	-1.350	16.70
103401	0.369	-2.010	16.72
103500	0.370	-1.280	16.72
103601	0.367	-1.675	16.76
103701	0.368	-1.975	16.78
103801	0.369	-1.615	16.78
103901	0.368	-1.670	16.80
104001	0.368	-1.910	16.80
104101	0.370	-1.390	16.84
104200	0.369	-2.015	16.86
104300	0.363	-1.635	16.86
104400	0.369	-1.675	16.88
104501	0.367	-1.960	16.90
104600	0.371	-1.295	16.90
104700	0.367	-1.950	16.94
104801	0.364	-1.910	16.96
104901	0.370	-1.325	16.96
105000	0.374	-1.720	16.98
105101	0.369	-1.590	17.00
105201	0.370	-1.315	17.00
105301	0.368	-1.640	17.04
105401	0.367	-1.585	17.06
105501	0.369	-1.595	17.06
105601	0.368	-1.910	17.08
105700	0.369	-1.240	17.10
105800	0.370	-1.650	17.10
105900	0.369	-1.615	17.14
106001	0.372	-1.260	17.14
106100	0.371	-1.320	17.16
106200	0.367	-1.620	17.18
106301	0.367	-1.325	17.18
106402	0.370	-1.700	17.22
106500	0.369	-1.640	17.24
106601	0.369	-1.300	17.24
106700	0.369	-2.035	17.26
106800	0.370	-1.210	17.28
106901	0.368	-1.635	17.28
107000	0.370	-1.630	17.32
107101	0.368	-1.250	17.34
107200	0.368	-2.070	17.34
107300	0.371	-1.650	17.36
107401	0.371	-1.265	17.38
107501	0.368	-2.065	17.38
107600	0.367	-1.360	17.42
107701	0.370	-1.715	17.44
107801	0.370	-2.100	17.44
107900	0.370	-1.320	17.46
108001	0.368	-1.725	17.46
108100	0.370	-1.975	17.50
108200	0.370	-1.315	17.52
108300	0.370	-2.065	17.52
108400	0.361	-1.695	17.54
108501	0.372	-1.335	17.56
108601	0.369	-1.730	17.56
108700	0.366	-1.410	17.60
108801	0.370	-1.370	17.62
108901	0.372	-2.120	17.62
109000	0.366	-1.335	17.64
109101	0.368	-1.415	17.66
109200	0.371	-1.710	17.66
109300	0.368	-1.750	17.70
109400	0.372	-2.140	17.72
109500	0.365	-1.720	17.72
109602	0.368	-1.390	17.74
109700	0.369	-2.125	17.76
109801	0.371	-1.720	17.76
109901	0.370	-1.760	17.80
110001	0.370	-2.120	17.80
110100	0.370	-1.385	17.82
110201	0.369	-1.785	17.84
110300	0.371	-1.745	17.84
110401	0.369	-1.390	17.88
110501	0.369	-2.055	17.90
110600	0.373	-1.755	17.90
110701	0.371	-1.445	17.92
110801	0.369	-2.105	17.94
110901	0.372	-1.740	17.94
111000	0.371	-1.795	17.98
111101	0.370	-2.100	18.00
111201	0.371	-1.425	18.00
111301	0.371	-1.540	18.02
111401	0.369	-2.130	18.04
111500	0.372	-1.465	18.04
111601	0.373	-2.020	18.08
111701	0.370	-2.130	18.10
111801	0.372	-1.275	18.10
111901	0.373	-2.015	18.12
112001	0.365	-1.625	18.12
112101	0.372	-1.305	18.16
112200	0.372	-1.880	18.18
112300	0.369	-1.225	18.18
112401	0.373	-1.555	18.20
112500	0.371	-1.505	18.22
112601	0.371	-1.505	18.22
112700	0.372	-1.860	18.26
112801	0.371	-1.835	18.28
112900	0.371	-1.595	18.28
113001	0.372	-1.605	18.30
113101	0.372	-1.585	18.32
113200	0.370	-1.645	18.32
113301	0.371	-2.020	18.36
113401	0.370	-1.265	18.38
113500	0.373	-1.600	18.38
113600	0.369	-1.560	18.40
113701	0.370	-1.220	18.44
113800	0.372	-1.645	18.44
113901	0.372	-1.945	18.46
114001	0.371	-1.260	18.48
114101	0.370	-2.060	18.48
114201	0.365	-1.645	18.50
114301	0.371	-1.320	18.54
114401	0.370	-2.035	18.56
114501	0.372	-1.375	18.56
114600	0.372	-1.730	18.58
114700	0.371	-1.685	18.58
114801	0.371	-1.355	18.60
114900	0.359	-2.025	18.64
115000	0.371	-1.700	18.64
115100	0.364	-1.745	18.66
115200	0.373	-1.750	18.68
115301	0.372	-1.715	18.68
115401	0.369	-1.445	18.70
115501	0.374	-1.735	18.74
115600	0.373	-1.465	18.74
115700	0.371	-1.995	18.76
115801	0.375	-1.990	18.76
115900	0.372	-1.480	18.78
116000	0.373	-2.060	18.82
116101	0.373	-2.005	18.82
116201	0.373	-1.380	18.84
116301	0.371	-2.135	18.86
116401	0.372	-1.745	18.86
116501	0.373	-1.445	18.88
116601	0.370	-2.115	18.92
116700	0.369	-1.405	18.92
116801	0.373	-1.795	18.94
116900	0.373	-1.755	18.94
117001	0.374	-1.750	18.96
117101	0.373	-1.820	18.98
117201	0.373	-2.075	19.02
117301	0.376	-1.430	19.02
117400	0.389	-2.115	19.04
117501	0.363	-1.725	19.06
117600	0.365	-1.770	19.06
117700	0.383	-2.115	19.10
117801	0.366	-1.390	19.10
117900	0.377	-1.805	19.12
118001	0.375	-2.150	19.14
118101	0.373	-1.465	19.16
118201	0.374	-1.810	19.16
118301	0.373	-1.770	19.20
118401	0.377	-1.420	19.22
118501	0.373	-2.200	19.22
118601	0.374	-1.765	19.24
118701	0.373	-1.500	19.26
118801	0.373	-2.210	19.26
118901	0.369	-1.395	19.30
119001	0.375	-1.545	19.32
119101	0.374	-1.580	19.32
119201	0.373	-1.380	19.34
119301	0.383	-1.835	19.34
119400	0.370	-1.790	19.38
119501	0.375	-1.455	19.40
119601	0.374	-2.090	19.40
119701	0.378	-1.810	19.42
119800	0.366	-1.865	19.44
119900	0.375	-1.670	19.44
120001	0.362	-1.655	19.48
120101	0.374	-1.720	19.50
120201	0.371	-2.050	19.50
120301	0.375	-1.325	19.52
120400	0.375	-2.010	19.54
120501	0.373	-1.705	19.54
120600	0.370	-1.435	19.58
120701	0.367	-2.120	19.60
120801	0.372	-1.735	19.60
120901	0.371	-1.490	19.62
121000	0.372	-2.145	19.64
121101	0.372	-1.495	19.64
121202	0.373	-1.815	19.68
121301	0.371	-2.225	19.68
121401	0.373	-1.420	19.70
121501	0.372	-1.860	19.72
121600	0.371	-1.820	19.72
121700	0.380	-1.580	19.76
121800	0.371	-2.190	19.78
121901	0.377	-1.825	19.78
122001	0.372	-1.505	19.80
122101	0.376	-2.265	19.82
122200	0.375	-1.470	19.82
122301	0.375	-1.880	19.86
122401	0.372	-2.180	19.88
122500	0.370	-1.480	19.90
122600	0.376	-2.265	19.90
122701	0.371	-1.825	19.92
122800	0.371	-1.860	19.96
122901	0.376	-2.225	19.96
123000	0.374	-1.535	19.98
123101	0.374	-1.510	20.00
123200	0.375	-2.180	20.00
123301	0.372	-1.600	20.04
123401	0.374	-1.820	20.06
123501	0.371	-2.170	20.06
123601	0.372	-1.485	20.08
123700	0.374	-2.235	20.10
123801	0.374	-1.835	20.10
123900	0.370	-1.870	20.14
124000	0.371	-2.245	20.16
124100	0.372	-1.540	20.16
124201	0.378	-1.640	20.18
124300	0.369	-2.180	20.20
124401	0.372	-1.855	20.20
124500	0.378	-2.175	20.24
124601	0.371	-1.930	20.26
124700	0.370	-1.530	20.26
124801	0.371	-1.935	20.28
124900	0.373	-1.890	20.28
125002	0.369	-1.525	20.30
125101	0.374	-2.255	20.34
125200	0.374	-1.630	20.34
125300	0.374	-1.930	20.36
125402	0.372	-2.230	20.38
125500	0.372	-1.550	20.38
125600	0.373	-1.945	20.42
125702	0.372	-2.270	20.44
125800	0.371	-1.535	20.44
125900	0.375	-1.835	20.46
126000	0.373	-2.040	20.48
126101	0.373	-1.405	20.48
126201	0.374	-2.100	20.52
126300	0.376	-1.745	20.54
126401	0.370	-1.550	20.54
126501	0.376	-2.190	20.56
126601	0.365	-1.790	20.58
126701	0.377	-1.845	20.58
126800	0.374	-1.820	20.62
126901	0.373	-1.475	20.62
127000	0.376	-2.120	20.64
127100	0.371	-1.770	20.66
127201	0.372	-1.460	20.66
127301	0.374	-2.205	20.70
127401	0.374	-1.865	20.72
127501	0.374	-1.620	20.72
127600	0.373	-2.215	20.74
127701	0.375	-1.530	20.76
127801	0.375	-1.890	20.76
127900	0.375	-1.865	20.80
128001	0.378	-1.545	20.82
128101	0.373	-1.925	20.82
128200	0.376	-1.885	20.84
128300	0.375	-1.680	20.86
128401	0.377	-2.110	20.86
128501	0.375	-1.780	20.90
128601	0.374	-1.470	20.92
128701	0.374	-2.225	20.92
128801	0.378	-1.560	20.94
128901	0.373	-1.870	20.94
129000	0.374	-1.835	20.98
129100	0.374	-1.595	21.00
129200	0.376	-2.250	21.00
129301	0.374	-2.095	21.02
129400	0.374	-1.815	21.04
129501	0.375	-2.120	21.04
129600	0.375	-1.800	21.08
129701	0.374	-1.570	21.10
129801	0.374	-2.140	21.10
129901	0.375	-1.825	21.12
130001	0.374	-1.895	21.14
130101	0.375	-1.865	21.14
130201	0.376	-1.850	21.18
130301	0.377	-1.925	21.20
130400	0.373	-1.595	21.20
130501	0.375	-1.490	21.22
130600	0.374	-2.350	21.24
130700	0.376	-1.640	21.24
130800	0.376	-1.960	21.28
130900	0.376	-2.145	21.28
131001	0.375	-2.220	21.30
131100	0.361	-1.975	21.32
131201	0.377	-2.215	21.32
131301	0.382	-1.500	21.36
131400	0.379	-2.165	21.38
131501	0.375	-2.165	21.38
131601	0.376	-1.290	21.40
131701	0.374	-1.715	21.42
131801	0.374	-1.680	21.42
131900	0.376	-1.745	21.46
132001	0.374	-2.135	21.48
132100	0.375	-1.290	21.48
132201	0.376	-1.765	21.50
132301	0.374	-2.140	21.52
132401	0.376	-1.400	21.56
132501	0.376	-2.050	21.56
132600	0.382	-1.785	21.58
132701	0.375	-1.425	21.60
132800	0.377	-2.205	21.60
132901	0.375	-1.775	21.64
133001	0.375	-1.495	21.66
133101	0.375	-2.250	21.66
133201	0.378	-1.815	21.68
133301	0.380	-1.535	21.70
133400	0.374	-1.845	21.70
133500	0.377	-1.465	21.74
133601	0.377	-2.245	21.76
133701	0.375	-2.275	21.76
133801	0.371	-1.485	21.78
133901	0.376	-2.295	21.80
134001	0.370	-1.885	21.80
134101	0.376	-1.600	21.84
134201	0.376	-2.300	21.86
134300	0.376	-1.480	21.86
134401	0.377	-1.920	21.88
134500	0.376	-1.905	21.88
134601	0.375	-1.605	21.92
134701	0.378	-2.190	21.94
134801	0.376	-1.920	21.94
134901	0.379	-1.560	21.96
135001	0.377	-2.285	21.98
135102	0.377	-1.940	21.98
135200	0.377	-1.990	22.02
135300	0.377	-2.200	22.04
135401	0.377	-1.940	22.04
135501	0.375	-1.980	22.06
135601	0.377	-2.350	22.08
135700	0.376	-1.610	22.08
135801	0.376	-2.005	22.12
135901	0.375	-1.950	22.14
136000	0.374	-1.670	22.14
136100	0.373	-2.385	22.16
136201	0.377	-1.950	22.18
136301	0.380	-2.000	22.18
136400	0.379	-2.215	22.22
136501	0.375	-1.955	22.22
136601	0.377	-1.600	22.24
136701	0.375	-2.325	22.26
136800	0.374	-1.680	22.26
136901	0.376	-1.975	22.30
137001	0.380	-1.900	22.32
137100	0.378	-1.555	22.32
137200	0.375	-2.365	22.34
137301	0.365	-1.930	22.36
137401	0.377	-1.945	22.36
137500	0.379	-2.280	22.40
137601	0.380	-1.925	22.42
137701	0.374	-1.985	22.42
137801	0.376	-2.245	22.44
137901	0.376	-1.600	22.46
138001	0.376	-2.270	22.46
138100	0.375	-1.940	22.50
138202	0.377	-1.545	22.52
138300	0.374	-2.380	22.52
138401	0.379	-1.950	22.54
138500	0.375	-2.005	22.54
138601	0.376	-2.285	22.58
138701	0.376	-1.960	22.60
138801	0.376	-2.020	22.60
138900	0.372	-1.990	22.62
139001	0.382	-1.650	22.64
139101	0.376	-2.045	22.64
139201	0.374	-1.995	22.68
139300	0.378	-1.655	22.70
139401	0.373	-2.330	22.70
139501	0.375	-1.990	22.72
139601	0.379	-2.040	22.74
139701	0.378	-2.405	22.74
139800	0.377	-1.575	22.78
139900	0.378	-1.990	22.80
140000	0.373	-1.950	22.80
140100	0.376	-1.625	22.82
140201	0.375	-2.015	22.84
140302	0.377	-2.315	22.84
140402	0.376	-2.320	22.88
140500	0.376	-2.415	22.88
140600	0.378	-2.020	22.90
140700	0.373	-2.060	22.92
140800	0.378	-2.310	22.92
140901	0.379	-1.980	22.96
141000	0.380	-2.050	22.98
141101	0.379	-2.280	22.98
141202	0.391	-1.750	23.00
141300	0.368	-2.055	23.02
141400	0.367	-1.875	23.02
141501	0.386	-1.560	23.06
141601	0.378	-2.205	23.08
141700	0.379	-1.635	23.08
141801	0.389	-1.735	23.10
141901	0.375	-2.385	23.12
142001	0.377	-1.900	23.12
142100	0.378	-1.980	23.16
142200	0.378	-1.930	23.16
142300	0.379	-1.575	23.18
142401	0.377	-2.290	23.20
142500	0.379	-1.960	23.20
142601	0.377	-1.555	23.24
142701	0.380	-2.365	23.26
142801	0.376	-2.285	23.26
142901	0.381	-1.995	23.28
143000	0.377	-2.275	23.30
143102	0.379	-1.970	23.30
143201	0.378	-1.795	23.34
143300	0.374	-1.990	23.36
143400	0.377	-1.630	23.36
143502	0.376	-2.045	23.38
143601	0.376	-2.325	23.40
143700	0.379	-1.665	23.40
143802	0.378	-2.020	23.44
143900	0.379	-1.660	23.46
144001	0.376	-2.010	23.46
144100	0.376	-1.995	23.48
144200	0.378	-1.620	23.48
144301	0.378	-1.800	23.52
144401	0.377	-2.440	23.54
144500	0.377	-1.605	23.56
144602	0.378	-2.060	23.56
144701	0.377	-2.400	23.58
144800	0.378	-2.070	23.62
144900	0.384	-2.095	23.62
145000	0.376	-2.030	23.64
145100	0.379	-1.780	23.66
145201	0.378	-2.465	23.66
145302	0.379	-2.310	23.68
145401	0.377	-1.840	23.72
145500	0.380	-2.060	23.72
145600	0.379	-1.690	23.74
145701	0.378	-2.105	23.76
145801	0.377	-2.400	23.76
145900	0.377	-2.095	23.78
146000	0.373	-2.425	23.82
146101	0.377	-2.060	23.82
146201	0.376	-1.825	23.84
146300	0.375	-2.095	23.86
146401	0.376	-1.775	23.86
146500	0.378	-1.845	23.90
146600	0.378	-2.085	23.92
146700	0.377	-1.820	23.92
146800	0.377	-2.485	23.94
146901	0.379	-2.090	23.96
147000	0.380	-1.865	23.96
147100	0.377	-2.460	24.00
147200	0.365	-2.085	24.02
147301	0.376	-2.125	24.02
147400	0.375	-2.045	24.04
147501	0.378	-1.890	24.06
147601	0.375	-1.945	24.06
147702	0.376	-2.325	24.10
147800	0.375	-1.535	24.12
147900	0.379	-2.355	24.12
148000	0.377	-1.950	24.14
148101	0.376	-1.670	24.14
148200	0.380	-2.290	24.18
148300	0.382	-1.625	24.20
148400	0.378	-2.045	24.20
148501	0.377	-2.315	24.22
148601	0.380	-1.565	24.24
148701	0.376	-1.710	24.24
148801	0.374	-2.380	24.28
148900	0.374	-1.685	24.30
149001	0.377	-2.045	24.30
149100	0.376	-1.995	24.32
149200	0.377	-1.665	24.34
149301	0.379	-2.440	24.34
149401	0.377	-2.040	24.38
149500	0.380	-1.635	24.40
149600	0.369	-2.050	24.40
149701	0.376	-2.045	24.42
149801	0.377	-2.095	24.42
149900	0.377	-2.070	24.46
150000	0.377	-1.705	24.48
150100	0.376	-2.450	24.48
150201	0.377	-2.455	24.50
150301	0.376	-1.735	24.52
150400	0.378	-2.400	24.52
150501	0.379	-2.080	24.56
150600	0.375	-2.145	24.58
150701	0.376	-2.415	24.58
150800	0.376	-1.770	24.60
150901	0.378	-2.140	24.62
151002	0.377	-2.510	24.62
151100	0.376	-1.765	24.66
151201	0.376	-2.170	24.68
151301	0.381	-2.055	24.68
151401	0.378	-1.825	24.70
151500	0.378	-2.400	24.72
151600	0.378	-1.710	24.72
151701	0.377	-1.750	24.76
151801	0.378	-2.465	24.76
151901	0.377	-2.050	24.78
152001	0.382	-2.105	24.80
152101	0.378	-2.095	24.80
152201	0.377	-2.075	24.84
152301	0.377	-1.855	24.86
152400	0.379	-2.095	24.86
152501	0.379	-1.745	24.88
152600	0.381	-2.580	24.90
152701	0.376	-2.120	24.90
152801	0.379	-1.875	24.94
152900	0.384	-2.520	24.96
153002	0.376	-2.115	24.96
153101	0.380	-2.175	24.98
153200	0.373	-2.135	25.00
153300	0.375	-1.930	25.00
153400	0.378	-2.505	25.04
153501	0.381	-2.410	25.06
153600	0.378	-2.170	25.06
153701	0.380	-2.195	25.08
153801	0.381	-2.465	25.08
153901	0.377	-2.175	25.12
154000	0.382	-2.160	25.14
154101	0.379	-2.135	25.14
154200	0.380	-2.210	25.16
154300	0.380	-2.465	25.18
154400	0.377	-1.740	25.18
154500	0.377	-2.565	25.22
154600	0.380	-2.130	25.24
154702	0.379	-1.790	25.24
154802	0.378	-2.445	25.26
154901	0.379	-2.155	25.28
155000	0.381	-2.205	25.28
155102	0.379	-2.490	25.32
155200	0.380	-1.665	25.34
155300	0.377	-2.165	25.34
155400	0.367	-2.115	25.36
155500	0.377	-1.730	25.38
155601	0.378	-2.190	25.38
155701	0.380	-2.155	25.42
155801	0.378	-1.805	25.44
155901	0.375	-2.200	25.44
156001	0.378	-2.165	25.46
156101	0.378	-1.920	25.50
156201	0.378	-2.575	25.52
156301	0.378	-2.155	25.52
156401	0.377	-2.205	25.54
156500	0.380	-2.165	25.56
156602	0.378	-2.130	25.56
156701	0.379	-2.200	25.60
156801	0.377	-2.150	25.62
156900	0.380	-2.165	25.62
157001	0.375	-1.745	25.64
157101	0.378	-2.130	25.66
157200	0.376	-2.205	25.66
157300	0.379	-2.075	25.70
157401	0.380	-2.060	25.70
157501	0.380	-2.125	25.72
157601	0.378	-2.340	25.74
157702	0.380	-2.040	25.74
157800	0.384	-2.430	25.78
157900	0.380	-2.070	25.80
158001	0.380	-1.705	25.80
158100	0.379	-2.535	25.82
158201	0.381	-2.120	25.84
158300	0.378	-2.180	25.84
158400	0.378	-2.490	25.88
158502	0.374	-2.140	25.90
158601	0.377	-1.955	25.90
158700	0.382	-2.160	25.92
158800	0.380	-1.815	25.94
158901	0.379	-2.535	25.94
159000	0.382	-2.170	25.98
159101	0.382	-1.885	26.00
159202	0.379	-2.240	26.00
159301	0.379	-2.170	26.02
159400	0.369	-2.235	26.02
159500	0.380	-2.195	26.06
159601	0.379	-1.955	26.08
159701	0.380	-1.935	26.08
159801	0.380	-2.570	26.10
159900	0.381	-1.925	26.12
160001	0.379	-2.570	26.12
160102	0.379	-2.580	26.16
160201	0.376	-1.875	26.18
160300	0.378	-2.575	26.18
160401	0.369	-2.235	26.20
160501	0.378	-1.925	26.22
160600	0.380	-2.485	26.22
160701	0.382	-2.215	26.26
160801	0.380	-1.960	26.28
160901	0.380	-2.545	26.28
161001	0.377	-1.890	26.30
161100	0.378	-2.510	26.32
161200	0.379	-2.205	26.32
161301	0.382	-1.855	26.36
161402	0.378	-2.240	26.36
161500	0.380	-1.830	26.38
161601	0.379	-1.880	26.40
161701	0.377	-2.680	26.40
161801	0.380	-1.945	26.44
161900	0.379	-2.555	26.46
162001	0.378	-2.645	26.46
162100	0.382	-1.950	26.48
162201	0.375	-2.460	26.50
162302	0.379	-2.605	26.50
162400	0.386	-2.230	26.54
162501	0.379	-2.180	26.56
162600	0.380	-1.865	26.56
162700	0.374	-2.180	26.58
162801	0.385	-2.210	26.60
162900	0.380	-1.810	26.60
163000	0.386	-2.510	26.64
163101	0.382	-1.970	26.66
163201	0.380	-1.850	26.66
163300	0.380	-2.560	26.68
163401	0.380	-2.470	26.72
163500	0.371	-2.245	26.72
163600	0.382	-2.620	26.74
163700	0.381	-1.870	26.74
163800	0.379	-2.260	26.76
163900	0.380	-2.500	26.78
164001	0.384	-1.985	26.78
164101	0.383	-2.275	26.82
164200	0.383	-2.250	26.84
164301	0.380	-1.995	26.84
164401	0.381	-2.300	26.86
164501	0.368	-2.255	26.88
164600	0.382	-1.945	26.88
164701	0.382	-2.605	26.92
164801	0.370	-2.250	26.94
164901	0.380	-2.290	26.94
165000	0.384	-2.270	26.96
165102	0.387	-2.255	26.96
165200	0.377	-2.325	27.00
165301	0.371	-2.690	27.02
165402	0.397	-1.955	27.02
165500	0.387	-2.675	27.04
165601	0.379	-2.295	27.06
165701	0.384	-1.915	27.06
165801	0.381	-2.625	27.10
165900	0.383	-2.040	27.12
166001	0.382	-1.950	27.12
166102	0.382	-2.330	27.14
166200	0.382	-1.880	27.16
166300	0.382	-2.320	27.16
166400	0.384	-2.535	27.20
166501	0.384	-1.965	27.22
166600	0.385	-2.280	27.22
166702	0.383	-2.650	27.24
166800	0.375	-1.855	27.26
166901	0.383	-2.305	27.26
167000	0.383	-1.930	27.30
167101	0.382	-1.965	27.30
167201	0.384	-2.550	27.32
167301	0.383	-1.885	27.34
167401	0.384	-2.255	27.38
167501	0.383	-2.620	27.38
167601	0.382	-1.825	27.40
167700	0.386	-2.675	27.42
167800	0.382	-2.225	27.42
167901	0.383	-1.875	27.44
168001	0.383	-2.625	27.48
168100	0.384	-1.865	27.48
168200	0.382	-2.270	27.50
168302	0.381	-2.275	27.52
168400	0.382	-1.865	27.54
168500	0.381	-2.310	27.54
168601	0.381	-2.645	27.58
168700	0.381	-1.875	27.60
168801	0.382	-2.315	27.60
168900	0.382	-2.240	27.62
169001	0.385	-1.995	27.62
169100	0.383	-2.660	27.66
169200	0.381	-2.040	27.68
169300	0.382	-2.290	27.68
169401	0.382	-2.635	27.70
169500	0.381	-1.785	27.72
169601	0.380	-2.245	27.72
169700	0.380	-2.210	27.76
169801	0.382	-1.820	27.78
169901	0.385	-2.295	27.78
170001	0.382	-2.260	27.80
170100	0.382	-2.305	27.82
170201	0.374	-2.675	27.82
170301	0.382	-2.270	27.86
170401	0.382	-2.035	27.88
170500	0.383	-2.535	27.88
170600	0.382	-1.910	27.90
170701	0.382	-2.025	27.92
170800	0.382	-2.305	27.92
170901	0.382	-1.980	27.96
171000	0.371	-2.745	27.96
171101	0.382	-2.320	27.98
171201	0.383	-1.960	28.00
171300	0.378	-2.710	28.00
171401	0.384	-2.290	28.04
171502	0.382	-1.950	28.06
171601	0.382	-2.650	28.06
171701	0.384	-2.245	28.08
171801	0.383	-2.310	28.10
171901	0.379	-2.555	28.10
172001	0.383	-1.905	28.14
172101	0.382	-2.580	28.16
172200	0.380	-2.285	28.16
172300	0.382	-2.020	28.18
172400	0.382	-2.715	28.20
172500	0.381	-2.310	28.20
172601	0.380	-2.085	28.24
172700	0.382	-2.615	28.24
172800	0.380	-1.950	28.26
172901	0.382	-2.370	28.28
173001	0.378	-2.710	28.28
173101	0.382	-1.960	28.32
173202	0.382	-2.350	28.34
173300	0.384	-2.285	28.34
173400	0.382	-2.345	28.36
173500	0.385	-2.795	28.38
173602	0.380	-2.595	28.38
173700	0.384	-2.385	28.42
173800	0.379	-2.705	28.44
173901	0.382	-2.005	28.44
174000	0.384	-2.620	28.46
174100	0.382	-2.170	28.48
174200	0.381	-1.930	28.48
174300	0.382	-2.540	28.52
174401	0.382	-2.225	28.54
174500	0.383	-1.995	28.54
174601	0.385	-2.310	28.56
174700	0.386	-1.925	28.60
174800	0.382	-2.310	28.60
174900	0.382	-2.310	28.62
175000	0.382	-1.850	28.64
175101	0.386	-2.255	28.64
175200	0.382	-2.235	28.66
175301	0.385	-1.890	28.70
175401	0.386	-2.285	28.70
175502	0.385	-2.585	28.72
175600	0.383	-1.985	28.72
175701	0.382	-2.595	28.74
175800	0.376	-1.965	28.76
175900	0.386	-2.315	28.76
176000	0.386	-2.570	28.80
176100	0.382	-1.930	28.82
176201	0.383	-2.330	28.82
176301	0.384	-2.665	28.84
176401	0.383	-1.915	28.86
176501	0.382	-2.365	28.86
176601	0.384	-2.565	28.90
176701	0.385	-1.970	28.90
176800	0.383	-2.755	28.92
176901	0.384	-2.330	28.94
177000	0.384	-2.395	28.98
177102	0.384	-2.655	28.98
177200	0.382	-1.970	29.00
177300	0.385	-2.385	29.02
177402	0.387	-2.690	29.02
177502	0.385	-2.040	29.04
177601	0.385	-2.395	29.08
177700	0.383	-2.340	29.08
177800	0.387	-2.395	29.10
177901	0.385	-2.795	29.12
178000	0.382	-2.065	29.12
178101	0.381	-2.140	29.14
178201	0.381	-2.795	29.18
178301	0.383	-2.380	29.18
178400	0.383	-2.435	29.20
178502	0.376	-2.795	29.22
178600	0.384	-2.005	29.22
178701	0.383	-2.440	29.26
178801	0.382	-2.820	29.28
178901	0.382	-1.970	29.28
179000	0.384	-2.835	29.30
179101	0.383	-2.370	29.32
179201	0.373	-2.425	29.32
179301	0.384	-2.745	29.36
179401	0.400	-2.140	29.38
179501	0.386	-2.440	29.38
179601	0.383	-2.710	29.40
179701	0.387	-2.405	29.42
179801	0.384	-2.470	29.42
179901	0.382	-2.425	29.46
180001	0.390	-2.045	29.48
180100	0.385	-2.875	29.48
180201	0.384	-2.435	29.50
180300	0.385	-2.490	29.50
180400	0.386	-2.880	29.54
180501	0.383	-2.435	29.56
180601	0.385	-2.485	29.56
180702	0.379	-2.805	29.58
180802	0.385	-2.185	29.60
180900	0.384	-2.175	29.60
181001	0.386	-2.680	29.64
181101	0.384	-2.045	29.66
181200	0.384	-2.730	29.66
181301	0.382	-2.315	29.68
181400	0.382	-2.380	29.70
181500	0.384	-2.365	29.70
181601	0.383	-2.355	29.74
181701	0.385	-2.420	29.76
181800	0.384	-2.385	29.76
181900	0.386	-2.035	29.78
182000	0.385	-2.820	29.80
182101	0.387	-2.435	29.80
182201	0.385	-2.140	29.84
182301	0.386	-2.820	29.86
182400	0.388	-2.150	29.86
182501	0.384	-2.180	29.88
182601	0.384	-2.490	29.92
182701	0.384	-2.440	29.92
182802	0.388	-2.480	29.94
182900	0.384	-2.450	29.96
183001	0.387	-2.110	29.98
183101	0.385	-2.765	29.98
183200	0.385	-2.465	30.02
183300	0.386	-2.500	30.04
183401	0.384	-2.825	30.04
183501	0.388	-2.440	30.06
183600	0.384	-2.490	30.08
183700	0.378	-2.710	30.08
183800	0.385	-2.090	30.12
183901	0.386	-2.520	30.12
184001	0.384	-2.885	30.14
184101	0.385	-2.115	30.16
184201	0.385	-2.525	30.16
184301	0.392	-2.760	30.20
184400	0.383	-2.515	30.22
184500	0.386	-2.880	30.22
184600	0.384	-2.195	30.24
184700	0.383	-2.530	30.26
184800	0.391	-2.840	30.26
184900	0.382	-2.095	30.30
185000	0.385	-2.900	30.32
185100	0.389	-2.505	30.32
185200	0.385	-2.130	30.34
185301	0.384	-2.520	30.36
185400	0.382	-2.480	30.36
185501	0.372	-2.055	30.40
185602	0.385	-2.480	30.42
185700	0.386	-2.070	30.42
185801	0.385	-2.095	30.44
185901	0.385	-2.895	30.46
186000	0.385	-2.085	30.46
186100	0.385	-2.515	30.50
186200	0.389	-2.465	30.50
186300	0.382	-2.095	30.52
186400	0.383	-2.520	30.54
186501	0.386	-2.505	30.54
186602	0.385	-2.135	30.58
186700	0.385	-2.885	30.60
186800	0.386	-2.170	30.60
186901	0.386	-2.535	30.62
187000	0.388	-2.850	30.64
187101	0.388	-2.495	30.64
187201	0.385	-2.565	30.68
187301	0.385	-2.800	30.70
187400	0.386	-2.130	30.70
187500	0.384	-2.800	30.72
187602	0.385	-2.865	30.74
187701	0.386	-2.140	30.74
187800	0.387	-2.965	30.78
187901	0.386	-2.525	30.78
188001	0.386	-2.350	30.80
188101	0.386	-2.975	30.82
188201	0.384	-2.290	30.82
188300	0.385	-2.595	30.86
188401	0.385	-2.810	30.88
188500	0.388	-2.015	30.88
188601	0.377	-2.345	30.90
188701	0.386	-2.330	30.92
188800	0.383	-2.385	30.92
188901	0.392	-2.800	30.96
189000	0.380	-2.050	30.98
189101	0.374	-2.430	30.98
189201	0.398	-2.835	31.00
189300	0.386	-2.000	31.02
189400	0.386	-2.810	31.02
189500	0.386	-2.690	31.06
189601	0.386	-2.070	31.08
189701	0.389	-2.510	31.08
189800	0.387	-2.460	31.10
189900	0.387	-2.180	31.10
190001	0.389	-2.480	31.14
190100	0.387	-2.035	31.16
190201	0.389	-2.475	31.16
190301	0.386	-2.880	31.18
190401	0.386	-2.445	31.20
190500	0.395	-2.820	31.20
190601	0.385	-2.880	31.24
190700	0.388	-2.100	31.26
190800	0.385	-2.780	31.26
190900	0.385	-2.210	31.28
191000	0.386	-2.115	31.30
191100	0.389	-2.850	31.30
191200	0.386	-2.205	31.34
191300	0.388	-2.585	31.36
191400	0.386	-2.915	31.36
191500	0.386	-2.120	31.38
191600	0.388	-2.800	31.40
191701	0.386	-2.665	31.40
191800	0.386	-2.040	31.44
191900	0.388	-2.800	31.44
192002	0.387	-2.795	31.46
192100	0.390	-2.095	31.48
192200	0.385	-2.515	31.48
192300	0.384	-2.145	31.52
192401	0.388	-2.195	31.54
192501	0.384	-2.845	31.56
192601	0.387	-2.220	31.56
192702	0.387	-2.290	31.58
192801	0.385	-2.925	31.62
192901	0.382	-2.180	31.62
193001	0.385	-2.580	31.64
193101	0.385	-2.555	31.66
193200	0.383	-2.590	31.66
193300	0.385	-2.985	31.68
193401	0.385	-2.580	31.72
193500	0.386	-2.545	31.72
193601	0.385	-2.905	31.74
193701	0.388	-2.265	31.76
193800	0.385	-2.860	31.76
193902	0.385	-2.960	31.80
194000	0.383	-2.125	31.82
194101	0.383	-2.600	31.82
194201	0.389	-2.565	31.84
194301	0.382	-2.210	31.86
194402	0.380	-2.855	31.86
194500	0.382	-2.215	31.90
194601	0.382	-2.620	31.92
194700	0.383	-2.600	31.92
194802	0.387	-2.600	31.94
194901	0.385	-2.620	31.96
195001	0.384	-2.645	31.96
195100	0.386	-2.350	32.00
195200	0.383	-3.005	32.02
195301	0.392	-2.625	32.02
195401	0.385	-2.275	32.04
195500	0.386	-2.845	32.04
195600	0.383	-2.230	32.08
195701	0.388	-2.330	32.10
195801	0.383	-2.965	32.10
195900	0.386	-2.205	32.12
196000	0.386	-2.640	32.14
196100	0.386	-2.865	32.14
196201	0.383	-2.585	32.18
196301	0.386	-2.660	32.20
196401	0.373	-2.960	32.20
196501	0.386	-2.240	32.22
196600	0.384	-3.070	32.24
196700	0.386	-2.280	32.24
196800	0.386	-2.675	32.28
196900	0.384	-3.040	32.30
197001	0.386	-2.615	32.30
197101	0.384	-2.210	32.32
197201	0.390	-3.035	32.32
197302	0.383	-2.340	32.34
197400	0.386	-3.055	32.38
197500	0.393	-2.615	32.38
197600	0.387	-2.355	32.40
197701	0.388	-2.990	32.42
197800	0.385	-2.325	32.42
197901	0.386	-2.410	32.46
198001	0.385	-2.705	32.48
198101	0.388	-2.630	32.48
198201	0.384	-2.385	32.50
198301	0.389	-2.965	32.52
198401	0.386	-2.265	32.52
198501	0.385	-2.720	32.56
198600	0.386	-2.660	32.58
198701	0.384	-2.230	32.58
198802	0.387	-2.685	32.60
198901	0.384	-2.640	32.62
199001	0.387	-2.305	32.62
199101	0.387	-3.110	32.66
199201	0.386	-2.320	32.68
199300	0.387	-2.710	32.68
199400	0.385	-2.660	32.70
199501	0.389	-2.335	32.70
199601	0.386	-2.730	32.74
199701	0.386	-2.990	32.76
199800	0.387	-2.470	32.76
199900	0.387	-3.030	32.78
200001	0.387	-2.675	32.80
200100	0.386	-2.745	32.80
200200	0.386	-3.000	32.84
200301	0.390	-2.385	32.86
200402	0.387	-2.475	32.86
200500	0.387	-2.680	32.88
200601	0.398	-2.360	32.90
200702	0.384	-2.715	32.90
200801	0.388	-2.980	32.94
200900	0.390	-2.425	32.96
201001	0.382	-3.060	32.96
201100	0.385	-2.295	32.98
201200	0.397	-2.730	33.00
201302	0.388	-3.135	33.00
201400	0.386	-2.300	33.04
201500	0.385	-2.755	33.04
201600	0.390	-2.705	33.06
201702	0.386	-2.470	33.08
201800	0.387	-3.105	33.08
201901	0.397	-2.950	33.12
202001	0.391	-2.425	33.14
202100	0.387	-3.135	33.14
202200	0.376	-2.710	33.16
202301	0.389	-2.510	33.18
202401	0.389	-3.130	33.18
202501	0.389	-2.495	33.22
202602	0.387	-2.345	33.24
202701	0.395	-3.105	33.24
202801	0.392	-2.425	33.26
202900	0.388	-3.140	33.28
203002	0.372	-3.090	33.28
203100	0.377	-2.455	33.32
203200	0.391	-3.240	33.32
203301	0.387	-2.780	33.34
203400	0.390	-2.815	33.36
203501	0.370	-3.230	33.36
203600	0.391	-2.400	33.40
203701	0.390	-2.820	33.42
203800	0.389	-2.790	33.42
203900	0.385	-2.410	33.44
204002	0.389	-2.565	33.46
204101	0.392	-3.100	33.50
204201	0.390	-2.365	33.50
204300	0.393	-3.125	33.52
204401	0.388	-2.610	33.54
204501	0.389	-2.315	33.54
204601	0.391	-3.075	33.56
204701	0.394	-2.395	33.60
204802	0.385	-2.310	33.60
204900	0.392	-2.960	33.62
205001	0.385	-2.475	33.64
205102	0.379	-2.760	33.64
205201	0.387	-3.000	33.68
205300	0.391	-2.450	33.70
205401	0.391	-3.065	33.70
205500	0.392	-2.365	33.72
205602	0.388	-2.375	33.74
205700	0.390	-3.185	33.74
205800	0.392	-2.375	33.78
205902	0.392	-2.375	33.80
206001	0.392	-3.220	33.80
206101	0.387	-2.510	33.82
206201	0.393	-2.835	33.84
206300	0.393	-2.780	33.84
206400	0.390	-2.830	33.88
206501	0.389	-3.190	33.90
206600	0.391	-2.465	33.90
206700	0.391	-2.855	33.92
206802	0.390	-3.090	33.94
206900	0.392	-2.430	33.94
207000	0.391	-2.825	33.98
207101	0.395	-3.135	33.98
207200	0.391	-2.550	34.00
207301	0.391	-2.835	34.02
207401	0.392	-2.815	34.02
207501	0.380	-2.480	34.06
207601	0.394	-3.200	34.08
207701	0.393	-2.820	34.08
207801	0.391	-2.855	34.10
207901	0.391	-2.885	34.12
208000	0.392	-2.490	34.12
208101	0.393	-2.860	34.16
208200	0.394	-2.810	34.18
208302	0.391	-2.810	34.18
208401	0.395	-2.885	34.20
208500	0.393	-2.825	34.22
208601	0.395	-2.480	34.22
208701	0.401	-3.315	34.26
208802	0.392	-2.860	34.28
208901	0.393	-2.625	34.28
209000	0.391	-3.260	34.30
209100	0.393	-2.465	34.30
209201	0.396	-2.610	34.34
209300	0.394	-2.805	34.36
209401	0.393	-2.390	34.36
209501	0.393	-3.125	34.38
209601	0.393	-3.225	34.40
209700	0.396	-2.870	34.40
209801	0.396	-3.280	34.44
209901	0.392	-2.825	34.46
210001	0.392	-2.415	34.46
210100	0.407	-3.110	34.48
210202	0.395	-2.845	34.50
210301	0.391	-2.605	34.54
210400	0.394	-2.870	34.54
210501	0.392	-2.485	34.56
210601	0.393	-2.930	34.56
210701	0.395	-2.885	34.58
210801	0.392	-2.470	34.62
210901	0.400	-2.945	34.62
211001	0.395	-2.885	34.64
211102	0.393	-2.525	34.66
211201	0.393	-3.255	34.66
211300	0.398	-2.485	34.68
211400	0.394	-3.145	34.72
211500	0.395	-3.115	34.72
211601	0.398	-2.630	34.74
211700	0.397	-3.225	34.76
211801	0.399	-3.215	34.76
211901	0.397	-2.485	34.78
212001	0.399	-3.175	34.78
212101	0.397	-2.880	34.82
212202	0.397	-2.505	34.84
212301	0.400	-3.310	34.84
212400	0.399	-2.535	34.86
212500	0.411	-3.205	34.88
212600	0.392	-2.895	34.88
212702	0.391	-2.640	34.92
212801	0.414	-2.965	34.94
212900	0.395	-2.880	34.94
213002	0.403	-2.465	34.96
213101	0.402	-3.330	35.00
213201	0.401	-3.330	35.00
213300	0.402	-2.905	35.02
213402	0.402	-2.925	35.04
213501	0.402	-2.865	35.04
213601	0.401	-2.660	35.06
213700	0.404	-2.895	35.10
213802	0.402	-2.885	35.10
213902	0.402	-2.945	35.12
214001	0.402	-3.265	35.14
214100	0.402	-2.945	35.14
214201	0.403	-2.975	35.16
214300	0.403	-3.330	35.20
214400	0.393	-2.845	35.20
214501	0.404	-3.280	35.22
214601	0.403	-2.525	35.24
214701	0.402	-2.895	35.24
214800	0.406	-2.885	35.28
214902	0.395	-2.870	35.30
215001	0.405	-2.950	35.30
215100	0.402	-3.165	35.32
215201	0.405	-2.530	35.32
215301	0.409	-3.235	35.34
215400	0.407	-2.910	35.38
215501	0.408	-2.625	35.38
215600	0.406	-3.285	35.40
215702	0.408	-2.935	35.42
215800	0.407	-2.990	35.44
215901	0.407	-3.340	35.44
216000	0.408	-2.585	35.48
216101	0.410	-3.265	35.50
216201	0.406	-3.205	35.50
216301	0.410	-2.630	35.52
216401	0.409	-3.315	35.54
216501	0.412	-3.260	35.54
216600	0.412	-2.995	35.58
216700	0.404	-3.345	35.58
216801	0.416	-2.690	35.60
216900	0.417	-3.025	35.62
217001	0.423	-3.310	35.62
217101	0.421	-2.680	35.66
217201	0.422	-3.005	35.68
217302	0.418	-3.275	35.68
217401	0.428	-2.740	35.70
217500	0.432	-3.405	35.72
217601	0.446	-2.985	35.72
217702	0.445	-2.665	35.76
217801	0.451	-3.445	35.78
217901	0.475	-2.690	35.78
218000	0.406	-3.290	35.80
218101	0.405	-2.920	35.82
218201	0.402	-2.540	35.82
218300	0.397	-3.365	35.86
218400	0.396	-2.930	35.86
218502	0.395	-2.655	35.88
218600	0.398	-3.435	35.90
218701	0.396	-2.975	35.90
218800	0.395	-3.020	35.94
218901	0.398	-3.455	35.96
219000	0.404	-2.600	35.96
219101	0.404	-3.030	35.98
219201	0.406	-3.015	36.00
219300	0.406	-2.590	36.00
219400	0.411	-3.455	36.04
219500	0.420	-3.010	36.06
219601	0.427	-2.690	36.06
219701	0.426	-3.405	36.08
219801	0.437	-3.025	36.10
219901	0.440	-2.825	36.10
220000	0.433	-3.450	36.14
220100	0.456	-2.690	36.16
220201	0.359	-3.090	36.16
220301	0.353	-3.380	36.18
220400	0.328	-2.665	36.18
220500	0.304	-3.455	36.22
220600	0.300	-3.060	36.24
220702	0.300	-2.710	36.24
220801	0.302	-3.135	36.26
220901	0.301	-3.450	36.28
221001	0.300	-2.770	36.28
221101	0.301	-3.560	36.32
221200	0.300	-2.645	36.34
221301	0.301	-3.115	36.34
221401	0.301	-3.445	36.36
221500	0.301	-2.625	36.38
221600	0.305	-3.455	36.38
221701	0.308	-3.475	36.42
221801	0.299	-2.710	36.44
221900	0.299	-3.575	36.46
222001	0.301	-3.090	36.46
222102	0.300	-2.720	36.48
222200	0.304	-3.365	36.52
222300	0.303	-2.715	36.52
222400	0.300	-3.430	36.54
222500	0.302	-3.095	36.56
222601	0.292	-2.745	36.56
222700	0.301	-3.410	36.60
222800	0.303	-3.105	36.62
222900	0.302	-3.150	36.62
223001	0.300	-3.555	36.64
223100	0.295	-3.105	36.64
223200	0.300	-3.165	36.66
223300	0.301	-3.420	36.70
223402	0.305	-3.145	36.70
223500	0.303	-3.190	36.72
223601	0.305	-3.515	36.74
223702	0.301	-2.840	36.74
223801	0.304	-3.205	36.76
223901	0.303	-3.325	36.80
224001	0.304	-2.645	36.80
224101	0.301	-3.500	36.82
224200	0.300	-3.075	36.84
224301	0.304	-3.115	36.84
224400	0.305	-3.415	36.88
224501	0.301	-2.775	36.88
224600	0.304	-3.170	36.90
224700	0.301	-3.125	36.92
224800	0.304	-2.780	36.92
224900	0.300	-3.470	36.94
225001	0.301	-3.425	36.98
225101	0.301	-2.725	36.98
225201	0.306	-3.500	37.00
225301	0.303	-3.145	37.02
225401	0.301	-2.795	37.02
225501	0.304	-3.595	37.04
225602	0.301	-3.145	37.08
225702	0.303	-2.930	37.08
225801	0.301	-3.580	37.10
225900	0.302	-3.165	37.12
226002	0.303	-3.210	37.12
226100	0.301	-3.155	37.16
226201	0.312	-2.780	37.18
226300	0.305	-3.625	37.18
226402	0.305	-3.505	37.20
226501	0.303	-2.795	37.22
226600	0.305	-3.510	37.22
226701	0.302	-2.810	37.26
226802	0.301	-2.895	37.28
226900	0.303	-3.175	37.28
227001	0.303	-2.895	37.30
227102	0.305	-3.220	37.32
227201	0.303	-3.625	37.32
227300	0.305	-2.855	37.36
227400	0.305	-3.665	37.38
227501	0.303	-3.195	37.38
227600	0.301	-3.235	37.40
227700	0.302	-3.605	37.42
227800	0.303	-2.770	37.42
227901	0.309	-3.235	37.46
228001	0.304	-3.600	37.46
228100	0.299	-2.855	37.48
228200	0.297	-3.585	37.50
228300	0.305	-3.220	37.50
228400	0.300	-2.815	37.54
228500	0.304	-3.570	37.56
228601	0.302	-3.465	37.56
228700	0.305	-2.950	37.58
228801	0.302	-3.550	37.60
228901	0.304	-3.135	37.60
229001	0.305	-2.940	37.64
229100	0.304	-3.175	37.66
229200	0.305	-2.800	37.66
229300	0.304	-3.610	37.68
229400	0.303	-3.190	37.70
229501	0.303	-2.820	37.70
229600	0.302	-3.660	37.74
229701	0.303	-3.210	37.76
229801	0.303	-3.250	37.76
229901	0.304	-3.665	37.78
230001	0.305	-2.915	37.78
230101	0.305	-3.280	37.82
230200	0.303	-3.490	37.84
230301	0.304	-2.975	37.86
230401	0.304	-3.515	37.86
230501	0.302	-3.245	37.88
230600	0.302	-2.925	37.92
230700	0.303	-3.655	37.92
230801	0.305	-3.245	37.94
230901	0.302	-3.290	37.96
231001	0.305	-3.695	37.96
231101	0.304	-3.255	37.98
231200	0.304	-3.565	38.02
231301	0.302	-3.695	38.02
231402	0.304	-3.260	38.04
231501	0.304	-3.330	38.06
231601	0.303	-3.525	38.06
231701	0.299	-2.915	38.08
231800	0.307	-3.675	38.12
231901	0.305	-3.300	38.12
232000	0.304	-3.335	38.14
232100	0.305	-3.635	38.16
232201	0.305	-3.575	38.16
232300	0.304	-3.350	38.20
232401	0.310	-3.740	38.22
232502	0.308	-3.295	38.22
232601	0.305	-3.615	38.24
232700	0.302	-3.300	38.24
232801	0.308	-2.860	38.26
232901	0.305	-3.675	38.30
233001	0.302	-3.245	38.30
233100	0.305	-3.280	38.32
233200	0.305	-3.445	38.34
233302	0.303	-3.125	38.34
233400	0.305	-3.210	38.36
233501	0.302	-3.600	38.40
233600	0.305	-2.750	38.40
233701	0.305	-3.240	38.42
233800	0.306	-3.440	38.44
233900	0.301	-3.245	38.44
234001	0.306	-3.620	38.48
234102	0.303	-3.475	38.50
234201	0.305	-2.785	38.50
234301	0.303	-3.550	38.52
234400	0.304	-2.810	38.54
234501	0.303	-2.955	38.54
234601	0.304	-3.570	38.58
234701	0.308	-2.795	38.60
234801	0.301	-3.530	38.60
234900	0.303	-3.185	38.62
235000	0.305	-2.905	38.64
235100	0.306	-3.675	38.64
235201	0.307	-3.525	38.68
235302	0.304	-2.865	38.70
235400	0.305	-3.630	38.70
235500	0.305	-2.860	38.72
235600	0.305	-3.630	38.72
235701	0.304	-3.700	38.76
235800	0.309	-2.940	38.78
235901	0.304	-3.305	38.78
236002	0.291	-3.700	38.80
236100	0.315	-2.950	38.82
236201	0.306	-3.640	38.82
236300	0.295	-2.955	38.86
236400	0.308	-3.350	38.88
236501	0.307	-3.715	38.88
236601	0.305	-3.720	38.90
236700	0.308	-3.635	38.92
236801	0.303	-3.630	38.92
236901	0.305	-3.040	38.96
237001	0.305	-3.350	38.98
237102	0.308	-3.715	38.98
237202	0.306	-2.930	39.00
237301	0.306	-3.600	39.02
237400	0.292	-2.985	39.02
237501	0.305	-2.945	39.06
237602	0.292	-3.675	39.06
237700	0.305	-2.930	39.08
237801	0.309	-3.365	39.10
237901	0.303	-3.680	39.10
238001	0.304	-2.925	39.14
238100	0.305	-3.730	39.16
238200	0.304	-3.365	39.16
238301	0.309	-2.975	39.18
238402	0.305	-3.410	39.20
238500	0.304	-3.115	39.20
238600	0.306	-3.400	39.24
238701	0.304	-3.810	39.26
238801	0.304	-3.045	39.26
238900	0.293	-3.425	39.28
239000	0.304	-3.640	39.30
239101	0.303	-2.920	39.30
239201	0.304	-3.415	39.34
239301	0.306	-3.840	39.36
239401	0.304	-2.935	39.36
239501	0.306	-3.765	39.38
239601	0.306	-3.370	39.38
239701	0.305	-3.120	39.42
239802	0.306	-3.370	39.44
239902	0.300	-3.310	39.44
240000	0.306	-3.375	39.46
240100	0.303	-3.340	39.48
240201	0.303	-3.020	39.52
240301	0.302	-3.400	39.52
240400	0.305	-3.360	39.54
240500	0.305	-3.100	39.56
240601	0.304	-3.740	39.56
240700	0.305	-3.290	39.58
240800	0.305	-3.340	39.62
240901	0.302	-3.750	39.62
241001	0.303	-3.325	39.64
241100	0.303	-3.275	39.66
241200	0.304	-3.240	39.66
241301	0.303	-2.980	39.70
241401	0.305	-3.325	39.72
241501	0.303	-3.550	39.72
241601	0.305	-2.925	39.74
241701	0.303	-3.380	39.76
241801	0.304	-3.345	39.76
241901	0.304	-3.030	39.80
242001	0.305	-3.815	39.82
242100	0.303	-3.045	39.82
242200	0.305	-3.435	39.84
242301	0.303	-3.810	39.86
242401	0.305	-2.955	39.86
242500	0.304	-3.640	39.90
242601	0.305	-3.650	39.92
242701	0.304	-2.980	39.92
242801	0.304	-3.610	39.94
242900	0.303	-3.045	39.96
243000	0.305	-3.385	39.96
243101	0.308	-3.770	40.00
243202	0.306	-3.370	40.00
243301	0.303	-3.410	40.02
243400	0.304	-3.380	40.04
243501	0.303	-2.995	40.04
243600	0.308	-3.745	40.08
243700	0.304	-3.365	40.10
243802	0.306	-3.055	40.10
243901	0.306	-3.780	40.12
244000	0.304	-3.385	40.14
244101	0.306	-3.135	40.14
244201	0.307	-3.775	40.18
244300	0.306	-3.045	40.20
244400	0.305	-3.100	40.20
244500	0.304	-3.635	40.22
244602	0.305	-3.415	40.24
244701	0.307	-3.465	40.24
244800	0.304	-3.915	40.28
244902	0.294	-3.105	40.30
245002	0.305	-3.715	40.30
245101	0.305	-3.710	40.32
245201	0.310	-3.125	40.32
245302	0.306	-3.510	40.36
245402	0.311	-3.715	40.38
245500	0.306	-3.500	40.38
245601	0.305	-3.885	40.40
245701	0.302	-3.050	40.42
245801	0.305	-3.160	40.42
245901	0.307	-3.840	40.46
246001	0.301	-3.050	40.48
246102	0.307	-3.515	40.48
246200	0.301	-3.475	40.50
246301	0.306	-3.125	40.52
246400	0.304	-3.780	40.52
246502	0.306	-3.470	40.56
246601	0.303	-3.285	40.58
246701	0.303	-3.890	40.58
246801	0.303	-3.490	40.60
246902	0.306	-3.550	40.62
247001	0.305	-3.890	40.62
247100	0.307	-3.520	40.66
247200	0.302	-3.955	40.66
247300	0.307	-3.490	40.68
247400	0.306	-3.550	40.70
247501	0.304	-3.955	40.70
247602	0.304	-3.510	40.74
247700	0.305	-3.585	40.76
247800	0.306	-3.540	40.76
247900	0.305	-3.185	40.78
248002	0.303	-3.575	40.80
248100	0.290	-3.535	40.80
248201	0.306	-3.120	40.84
248301	0.305	-3.975	40.86
248401	0.304	-3.550	40.86
248500	0.305	-3.600	40.88
248600	0.305	-3.960	40.90
248702	0.297	-3.545	40.90
248802	0.304	-3.200	40.94
248901	0.304	-3.865	40.94
249000	0.307	-3.110	40.96
249102	0.305	-3.550	40.98
249201	0.306	-3.540	40.98
249301	0.304	-3.145	41.02
249401	0.310	-3.890	41.04
249501	0.306	-3.550	41.04
249602	0.305	-3.285	41.06
249701	0.306	-4.020	41.08
249801	0.307	-3.560	41.08
249901	0.306	-3.625	41.12
250000	0.305	-3.600	41.14
250101	0.307	-3.235	41.14
250201	0.304	-3.640	41.16
250301	0.309	-3.885	41.18
250401	0.304	-3.225	41.18
250501	0.306	-3.925	41.22
250602	0.305	-3.930	41.24
250701	0.306	-3.235	41.24
250801	0.303	-3.985	41.26
250901	0.307	-3.510	41.26
251002	0.293	-3.185	41.30
251102	0.306	-3.965	41.32
251201	0.312	-3.325	41.32
251300	0.305	-3.980	41.34
251402	0.305	-3.950	41.36
251501	0.297	-3.240	41.36
251600	0.304	-4.015	41.40
251701	0.304	-3.600	41.42
251802	0.305	-3.315	41.42
251901	0.306	-4.020	41.44
252000	0.306	-3.225	41.46
252102	0.305	-3.235	41.46
252201	0.302	-3.945	41.50
252300	0.291	-3.175	41.52
252401	0.309	-3.675	41.52
252501	0.306	-4.070	41.54
252602	0.306	-3.645	41.56
252700	0.306	-3.950	41.56
252800	0.305	-3.565	41.60
252901	0.303	-3.270	41.62
253001	0.305	-4.020	41.62
253100	0.308	-3.240	41.64
253200	0.305	-3.335	41.68
253301	0.307	-4.030	41.68
253401	0.308	-3.225	41.70
253500	0.307	-3.995	41.72
253600	0.305	-3.575	41.72
253701	0.306	-3.190	41.74
253801	0.305	-3.655	41.78
253901	0.306	-3.610	41.78
254001	0.300	-3.175	41.80
254100	0.305	-3.910	41.82
254202	0.306	-3.620	41.82
254301	0.301	-3.365	41.84
254401	0.305	-4.075	41.88
254501	0.305	-3.190	41.88
254601	0.305	-3.925	41.90
254700	0.307	-3.630	41.92
254801	0.305	-3.215	41.92
254902	0.300	-3.695	41.96
255001	0.298	-3.645	41.98
255101	0.306	-3.695	41.98
255200	0.293	-4.115	42.00
255300	0.307	-3.280	42.02
255402	0.302	-3.300	42.02
255502	0.312	-4.080	42.06
255601	0.303	-3.330	42.08
255701	0.306	-3.730	42.08
255801	0.306	-3.700	42.10
255902	0.302	-3.340	42.12
256000	0.307	-4.140	42.12
256101	0.306	-3.675	42.16
256201	0.307	-3.390	42.18
256300	0.310	-4.125	42.18
256401	0.314	-3.445	42.20
256501	0.305	-3.745	42.20
256600	0.310	-3.975	42.24
256700	0.311	-3.260	42.26
256801	0.306	-3.775	42.26
256902	0.305	-4.170	42.28
257001	0.308	-3.720	42.30
257101	0.305	-3.795	42.30
257201	0.307	-4.005	42.34
257302	0.308	-3.340	42.36
257401	0.305	-4.125	42.36
257501	0.304	-3.745	42.38
257601	0.308	-3.800	42.40
257701	0.305	-4.195	42.40
257800	0.309	-3.310	42.44
257902	0.307	-3.810	42.46
258001	0.309	-4.020	42.46
258101	0.305	-3.760	42.48
258200	0.308	-4.280	42.50
258301	0.309	-3.785	42.50
258402	0.310	-3.310	42.54
258502	0.310	-4.050	42.54
258601	0.308	-3.750	42.56
258701	0.306	-3.485	42.58
258801	0.307	-4.195	42.58
258900	0.307	-3.350	42.62
259002	0.309	-3.480	42.64
259100	0.306	-3.790	42.64
259200	0.309	-3.365	42.66
259302	0.307	-3.860	42.68
259401	0.319	-3.785	42.68
259500	0.299	-3.755	42.72
259601	0.297	-3.995	42.74
259701	0.321	-3.190	42.74
259800	0.305	-3.610	42.76
259901	0.309	-3.995	42.78
260002	0.311	-3.600	42.78
260102	0.308	-3.670	42.82
260200	0.312	-4.015	42.84
260300	0.309	-3.395	42.84
260401	0.310	-3.745	42.86
260500	0.308	-3.690	42.86
260600	0.310	-3.765	42.90
260701	0.311	-4.180	42.92
260800	0.314	-3.460	42.92
260902	0.307	-3.465	42.94
261000	0.309	-4.080	42.96
261101	0.308	-3.455	42.96
261200	0.311	-4.105	43.00
261302	0.308	-4.225	43.02
261402	0.308	-3.395	43.02
261501	0.309	-4.160	43.04
261601	0.311	-3.805	43.06
261701	0.307	-3.855	43.06
261802	0.307	-4.145	43.10
261900	0.309	-3.470	43.12
262002	0.308	-3.455	43.12
262100	0.306	-3.840	43.14
262200	0.309	-3.425	43.16
262301	0.307	-3.890	43.16
262402	0.309	-4.285	43.20
262500	0.307	-3.485	43.20
262600	0.307	-4.300	43.22
262701	0.307	-3.865	43.24
262802	0.311	-3.540	43.24
262900	0.306	-4.295	43.28
263001	0.307	-3.860	43.30
263101	0.306	-3.905	43.30
263201	0.295	-4.285	43.32
263301	0.305	-3.880	43.34
263401	0.307	-3.935	43.34
263502	0.307	-4.320	43.38
263601	0.302	-3.535	43.40
263701	0.309	-3.960	43.40
263800	0.296	-3.635	43.42
263902	0.307	-3.610	43.44
264001	0.305	-4.040	43.44
264101	0.308	-3.690	43.48
264200	0.306	-3.775	43.50
264302	0.307	-4.135	43.50
264400	0.306	-3.365	43.52
264501	0.307	-3.810	43.56
264601	0.308	-3.855	43.56
264702	0.308	-3.840	43.58
264802	0.308	-3.890	43.60
264901	0.309	-3.870	43.60
265002	0.308	-3.560	43.62
265100	0.306	-3.830	43.66
265200	0.307	-3.800	43.66
265301	0.306	-3.775	43.68
265402	0.316	-4.165	43.70
265501	0.305	-3.495	43.70
265600	0.307	-4.155	43.72
265701	0.307	-4.115	43.76
265802	0.307	-3.485	43.76
265902	0.306	-4.160	43.78
266001	0.308	-3.895	43.80
266100	0.304	-3.935	43.80
266201	0.306	-4.355	43.84
266301	0.306	-3.485	43.86
266400	0.306	-3.935	43.86
266500	0.307	-4.170	43.88
266602	0.306	-3.885	43.90
266702	0.307	-3.935	43.90
266800	0.307	-3.900	43.94
266901	0.307	-3.495	43.96
267001	0.313	-4.330	43.96
267101	0.308	-3.930	43.98
267201	0.309	-3.580	44.00
267301	0.306	-4.390	44.00
267401	0.309	-3.640	44.04
267500	0.307	-3.990	44.06
267601	0.306	-4.385	44.06
267700	0.306	-3.500	44.08
267801	0.314	-3.750	44.10
267902	0.306	-4.355	44.10
268000	0.309	-3.685	44.14
268101	0.306	-4.280	44.14
268201	0.311	-3.935	44.16
268301	0.309	-3.530	44.18
268401	0.307	-4.330	44.18
268502	0.310	-3.905	44.22
268601	0.308	-3.970	44.24
268700	0.309	-4.300	44.24
268801	0.307	-3.930	44.26
268901	0.309	-4.005	44.28
269002	0.306	-4.390	44.28
269100	0.314	-3.630	44.32
269201	0.307	-4.245	44.34
269302	0.312	-4.395	44.34
269400	0.306	-4.005	44.36
269500	0.306	-4.420	44.38
269601	0.315	-3.955	44.38
269702	0.308	-3.595	44.42
269800	0.307	-4.305	44.44
269901	0.308	-3.745	44.44
270001	0.308	-4.050	44.46
270102	0.308	-4.375	44.46
270201	0.311	-3.670	44.50
270301	0.311	-4.075	44.52
270401	0.305	-4.015	44.52
270500	0.307	-4.070	44.54
270600	0.308	-4.405	44.56
270701	0.308	-4.010	44.56
270802	0.308	-3.670	44.60
270901	0.310	-4.460	44.62
271001	0.307	-3.750	44.62
271102	0.309	-3.845	44.64
271202	0.307	-4.475	44.66
271300	0.309	-3.755	44.66
271401	0.305	-4.380	44.70
271502	0.313	-4.425	44.72
271600	0.312	-4.125	44.72
271701	0.308	-4.550	44.74
271800	0.308	-3.635	44.74
271902	0.308	-3.805	44.78
272002	0.307	-4.525	44.80
272101	0.309	-3.795	44.80
272201	0.309	-4.130	44.82
272302	0.298	-4.485	44.84
272401	0.309	-3.725	44.84
272501	0.309	-4.155	44.88
272602	0.310	-4.510	44.90
272702	0.306	-3.755	44.90
272801	0.311	-4.460	44.92
272900	0.310	-3.780	44.94
273002	0.310	-3.875	44.94
273101	0.311	-4.445	44.98
273201	0.311	-3.770	45.00
273300	0.308	-4.440	45.00
273400	0.310	-4.140	45.02
273502	0.310	-3.885	45.04
273601	0.310	-4.195	45.04
273700	0.311	-4.140	45.08
273801	0.309	-3.870	45.08
273901	0.310	-4.585	45.10
274000	0.308	-3.855	45.12
274101	0.307	-3.940	45.12
274200	0.313	-4.180	45.16
274302	0.309	-4.165	45.18
274401	0.311	-3.790	45.18
274501	0.311	-4.505	45.20
274601	0.310	-3.785	45.22
274700	0.311	-4.540	45.22
274801	0.312	-4.445	45.26
274900	0.305	-4.205	45.28
275000	0.312	-4.575	45.28
275101	0.307	-4.170	45.30
275202	0.309	-3.895	45.32
275301	0.312	-4.510	45.32
275401	0.310	-4.135	45.36
275500	0.305	-4.210	45.38
275602	0.309	-4.575	45.38
275702	0.311	-3.850	45.40
275800	0.314	-4.500	45.40
275900	0.309	-4.180	45.44
276002	0.307	-3.810	45.46
276101	0.312	-4.505	45.48
276201	0.309	-4.165	45.48
276301	0.311	-4.210	45.50
276401	0.311	-4.590	45.54
276500	0.309	-3.755	45.54
276601	0.308	-4.210	45.56
276702	0.310	-4.585	45.58
276800	0.310	-3.925	45.58
276900	0.309	-4.590	45.60
277001	0.310	-4.415	45.64
277100	0.309	-4.220	45.64
277201	0.311	-4.525	45.66
277302	0.316	-4.215	45.68
277402	0.296	-3.895	45.68
277501	0.310	-4.625	45.70
277600	0.309	-3.855	45.74
277702	0.315	-4.010	45.74
277802	0.309	-4.660	45.76
277901	0.311	-3.875	45.78
278001	0.309	-4.300	45.78
278100	0.301	-4.000	45.82
278201	0.316	-3.930	45.84
278301	0.311	-4.315	45.84
278401	0.316	-4.240	45.86
278502	0.310	-3.930	45.88
278602	0.309	-4.655	45.88
278700	0.310	-3.870	45.92
278800	0.311	-4.630	45.94
278901	0.310	-4.295	45.94
279002	0.312	-3.940	45.96
279101	0.312	-4.350	45.98
279201	0.311	-4.625	45.98
279301	0.308	-3.975	46.02
279402	0.313	-4.370	46.02
279502	0.309	-4.325	46.04
279600	0.297	-4.350	46.06
279701	0.309	-4.755	46.06
279802	0.308	-4.340	46.10
279902	0.310	-4.340	46.12
280001	0.307	-4.665	46.12
280100	0.310	-4.025	46.14
280202	0.306	-4.360	46.16
280300	0.312	-4.315	46.16
280401	0.309	-3.915	46.20
280501	0.309	-4.735	46.22
280601	0.309	-4.335	46.22
280701	0.311	-4.115	46.24
280801	0.309	-4.715	46.26
280901	0.310	-4.090	46.26
281000	0.311	-4.420	46.30
281101	0.309	-4.820	46.32
281202	0.310	-4.120	46.32
281302	0.311	-4.445	46.34
281400	0.312	-4.380	46.34
281502	0.311	-4.040	46.38
281601	0.312	-4.835	46.40
281701	0.308	-4.415	46.40
281801	0.314	-4.225	46.42
281901	0.312	-4.835	46.44
282001	0.308	-4.410	46.44
282101	0.313	-4.455	46.48
282201	0.313	-4.770	46.50
282302	0.310	-4.410	46.50
282402	0.310	-4.100	46.52
282501	0.312	-4.425	46.54
282601	0.310	-4.040	46.54
282700	0.311	-4.795	46.58
282800	0.313	-4.160	46.60
282902	0.311	-4.090	46.60
283001	0.310	-4.860	46.62
283101	0.313	-4.100	46.64
283201	0.314	-4.485	46.64
283302	0.312	-4.900	46.68
283402	0.324	-4.170	46.68
283501	0.302	-4.495	46.70
283602	0.308	-4.865	46.72
283701	0.319	-4.155	46.72
283801	0.312	-4.520	46.76
283900	0.315	-4.100	46.78
284002	0.316	-4.130	46.78
284100	0.311	-4.825	46.80
284200	0.311	-4.070	46.82
284300	0.316	-4.850	46.82
284402	0.311	-4.835	46.86
284500	0.314	-4.060	46.88
284600	0.316	-4.905	46.88
284700	0.313	-4.215	46.90
284801	0.316	-4.080	46.92
284900	0.313	-4.880	46.92
285000	0.313	-4.465	46.96
285101	0.314	-4.535	46.98
285202	0.313	-4.880	46.98
285300	0.314	-4.105	47.00
285401	0.304	-4.560	47.04
285501	0.312	-4.530	47.04
285602	0.312	-4.160	47.06
285700	0.312	-4.585	47.08
285800	0.315	-4.545	47.08
285901	0.312	-4.305	47.10
286001	0.312	-4.600	47.14
286101	0.312	-4.540	47.14
286201	0.311	-4.595	47.16
286301	0.311	-4.880	47.18
286400	0.312	-4.200	47.18
286501	0.313	-4.585	47.20
286602	0.312	-4.940	47.24
286700	0.313	-4.235	47.24
286801	0.314	-4.855	47.26
286902	0.312	-4.920	47.28
287000	0.314	-4.605	47.28
287102	0.314	-4.630	47.32
287200	0.310	-4.340	47.32
287300	0.315	-4.615	47.34
287402	0.314	-4.630	47.36
287501	0.314	-4.585	47.36
287601	0.316	-4.640	47.38
287701	0.314	-4.615	47.42
287800	0.319	-4.330	47.44
287902	0.312	-4.615	47.44
288000	0.313	-4.575	47.46
288100	0.308	-4.345	47.48
288201	0.315	-5.005	47.48
288300	0.313	-4.590	47.52
288400	0.313	-4.660	47.54
288501	0.315	-4.995	47.54
288600	0.314	-4.240	47.56
288701	0.313	-4.670	47.58
288802	0.312	-5.040	47.58
288900	0.316	-4.275	47.62
289001	0.313	-4.650	47.62
289102	0.318	-4.950	47.64
289200	0.313	-4.625	47.66
289301	0.314	-4.995	47.66
289400	0.311	-4.270	47.70
289502	0.313	-4.265	47.72
289600	0.313	-4.975	47.72
289701	0.311	-4.335	47.74
289802	0.307	-4.385	47.76
289902	0.312	-4.710	47.76
290001	0.315	-4.285	47.80
290101	0.314	-4.990	47.82
290201	0.314	-4.645	47.82
290301	0.315	-4.275	47.84
290400	0.316	-5.025	47.86
290500	0.310	-4.270	47.86
290602	0.314	-4.400	47.90
290700	0.314	-4.925	47.92
290801	0.318	-4.385	47.92
290901	0.314	-4.715	47.94
291001	0.319	-5.090	47.98
291102	0.314	-4.400	47.98
291200	0.318	-5.055	48.00
291300	0.315	-4.675	48.02
291401	0.315	-4.715	48.02
291501	0.313	-4.745	48.04
291600	0.322	-4.360	48.04
291701	0.318	-4.495	48.08
291801	0.314	-5.040	48.10
291901	0.315	-4.700	48.10
292000	0.325	-5.015	48.12
292101	0.318	-5.035	48.14
292201	0.316	-4.380	48.14
292300	0.313	-5.080	48.18
292401	0.317	-4.730	48.20
292502	0.317	-4.460	48.20
292602	0.321	-4.765	48.22
292700	0.309	-4.400	48.24
292801	0.312	-4.505	48.24
292901	0.315	-5.170	48.28
293001	0.321	-4.310	48.30
293101	0.314	-4.805	48.30
293200	0.316	-4.765	48.32
293300	0.315	-4.460	48.32
293400	0.316	-5.210	48.36
293501	0.313	-5.025	48.38
293600	0.317	-4.815	48.38
293701	0.312	-4.840	48.40
293801	0.316	-4.775	48.42
293901	0.315	-4.415	48.46
294000	0.316	-5.190	48.46
294101	0.304	-4.430	48.48
294202	0.315	-4.555	48.50
294301	0.314	-5.205	48.52
294400	0.316	-4.495	48.52
294502	0.317	-4.435	48.56
294600	0.316	-4.720	48.56
294701	0.310	-4.370	48.58
294800	0.316	-5.140	48.60
294901	0.315	-4.740	48.60
295000	0.308	-4.795	48.64
295100	0.316	-5.005	48.66
295201	0.316	-4.480	48.66
295301	0.318	-4.780	48.68
295400	0.313	-5.095	48.70
295501	0.314	-4.730	48.70
295602	0.316	-4.785	48.74
295702	0.316	-5.110	48.76
295800	0.312	-4.805	48.76
295901	0.316	-5.180	48.78
296001	0.316	-4.770	48.78
296102	0.314	-4.310	48.80
296200	0.316	-4.860	48.84
296301	0.319	-4.295	48.84
296402	0.314	-4.425	48.86
296501	0.317	-4.990	48.88
296601	0.315	-4.300	48.88
296700	0.316	-5.080	48.92
296800	0.314	-4.650	48.94
296901	0.318	-4.200	48.94
297002	0.317	-4.535	48.96
297101	0.316	-4.475	48.98
297200	0.317	-4.540	48.98
297302	0.316	-4.825	49.02
297402	0.317	-4.500	49.04
297500	0.315	-4.575	49.04
297600	0.315	-4.550	49.06
297702	0.316	-4.250	49.08
297801	0.318	-4.945	49.08
297901	0.316	-4.930	49.12
298000	0.316	-4.660	49.14
298101	0.318	-5.010	49.14
298202	0.316	-4.675	49.16
298300	0.316	-4.720	49.18
298401	0.318	-5.025	49.18
298502	0.311	-4.700	49.22
298601	0.316	-4.750	49.22
298701	0.325	-5.085	49.24
298801	0.316	-4.405	49.26
298902	0.317	-4.795	49.26
299001	0.319	-5.010	49.30
299100	0.317	-4.770	49.32
299201	0.312	-5.110	49.32
299301	0.312	-4.765	49.34
299400	0.316	-4.825	49.36
299500	0.316	-4.800	49.36
299602	0.315	-4.805	49.40
299700	0.318	-4.850	49.42
299800	0.318	-4.820	49.42
299901	0.316	-4.550	49.44
300001	0.318	-4.880	49.46
300100	0.316	-4.845	49.46
300200	0.318	-4.645	49.50
300300	0.315	-5.215	49.52
300402	0.325	-4.865	49.52
300500	0.316	-4.900	49.54
300600	0.318	-5.085	49.54
300701	0.321	-4.560	49.58
300801	0.317	-4.915	49.60
300902	0.317	-5.240	49.60
301002	0.315	-4.610	49.62
301100	0.318	-5.230	49.64
301201	0.317	-4.900	49.64
301302	0.319	-4.555	49.68
301401	0.316	-4.950	49.70
301500	0.318	-4.580	49.70
301601	0.320	-4.945	49.72
301701	0.324	-5.305	49.74
301800	0.323	-4.925	49.74
301901	0.319	-4.975	49.78
302001	0.319	-5.260	49.80
302101	0.317	-4.575	49.80
302201	0.318	-4.990	49.82
302301	0.318	-5.225	49.86
302401	0.320	-4.630	49.86
302501	0.318	-5.365	49.88
302600	0.318	-4.690	49.90
302700	0.319	-5.020	49.90
302801	0.319	-5.275	49.92
302901	0.313	-4.595	49.96
303000	0.319	-5.010	49.98
303100	0.324	-5.330	49.98
303201	0.316	-4.660	50.00
303300	0.320	-5.300	50.02
303401	0.318	-5.235	50.02
303501	0.319	-4.660	50.06
303601	0.318	-5.380	50.06
303700	0.311	-4.675	50.08
303800	0.319	-5.015	50.10
303901	0.323	-5.315	50.10
304001	0.323	-4.990	50.12
304100	0.319	-5.050	50.16
304200	0.318	-5.015	50.16
304301	0.318	-4.705	50.18
304402	0.319	-5.065	50.20
304500	0.323	-5.025	50.20
304600	0.319	-5.065	50.24
304701	0.319	-5.390	50.26
304802	0.319	-5.060	50.26
304900	0.320	-4.765	50.28
305000	0.324	-5.070	50.28
305102	0.319	-5.065	50.30
305201	0.320	-5.095	50.34
305301	0.322	-5.085	50.36
305400	0.322	-4.755	50.36
305500	0.331	-5.425	50.38
305602	0.321	-5.440	50.40
305700	0.320	-4.840	50.40
305800	0.323	-5.460	50.44
305902	0.323	-5.150	50.46
306001	0.319	-5.130	50.46
306101	0.321	-5.405	50.48
306200	0.323	-4.720	50.48
306300	0.320	-5.155	50.52
306401	0.322	-5.115	50.54
306500	0.322	-4.790	50.54
306600	0.325	-5.495	50.56
306701	0.321	-5.370	50.58
306801	0.323	-4.915	50.58
306900	0.320	-5.540	50.62
307001	0.325	-5.140	50.64
307101	0.325	-5.180	50.64
307202	0.322	-5.510	50.66
307300	0.315	-4.785	50.68
307401	0.328	-5.205	50.68
307501	0.323	-5.185	50.72
307601	0.310	-4.895	50.74
307701	0.338	-5.230	50.74
307801	0.325	-5.185	50.76
307901	0.320	-4.945	50.78
308002	0.326	-5.230	50.78
308101	0.326	-5.180	50.82
308202	0.328	-4.910	50.82
308301	0.325	-5.535	50.84
308400	0.313	-4.875	50.86
308500	0.325	-5.260	50.86
308601	0.324	-5.505	50.90
308702	0.326	-5.210	50.92
308801	0.325	-5.270	50.92
308901	0.324	-5.225	50.94
309001	0.327	-4.990	50.96
309101	0.323	-5.550	50.96
309201	0.325	-5.245	51.00
309301	0.325	-5.025	51.02
309400	0.325	-5.265	51.02
309502	0.326	-5.265	51.04
309601	0.327	-5.305	51.06
309700	0.325	-5.280	51.06
309802	0.325	-5.245	51.10
309900	0.320	-5.560	51.10
310001	0.326	-5.280	51.12
310100	0.326	-5.030	51.14
310202	0.324	-5.325	51.14
310301	0.325	-5.595	51.18
310400	0.328	-5.340	51.20
310500	0.328	-5.310	51.20
310601	0.327	-4.995	51.22
310701	0.325	-5.015	51.24
310800	0.321	-5.325	51.24
310902	0.325	-5.315	51.28
311001	0.326	-5.380	51.30
311102	0.325	-5.670	51.30
311200	0.326	-5.365	51.32
311301	0.323	-5.630	51.34
311400	0.325	-5.360	51.34
311500	0.324	-5.400	51.38
311601	0.326	-5.700	51.40
311701	0.325	-5.100	51.40
311801	0.327	-5.405	51.42
311900	0.327	-5.390	51.42
312001	0.325	-5.085	51.46
312101	0.325	-5.435	51.48
312201	0.327	-5.640	51.48
312300	0.324	-5.430	51.50
312400	0.327	-5.695	51.52
312501	0.328	-5.405	51.56
312601	0.327	-5.125	51.56
312700	0.326	-5.430	51.58
312801	0.326	-5.090	51.60
312902	0.323	-5.470	51.60
313001	0.325	-5.450	51.62
313100	0.337	-5.185	51.66
313202	0.328	-5.490	51.66
313301	0.325	-5.460	51.68
313400	0.327	-5.500	51.70
313500	0.326	-5.820	51.70
313601	0.328	-5.470	51.72
313702	0.328	-5.210	51.76
313800	0.329	-5.500	51.76
313901	0.329	-5.240	51.78
314002	0.328	-5.515	51.80
314101	0.329	-5.510	51.80
314200	0.329	-5.300	51.84
314300	0.328	-5.875	51.84
314401	0.328	-5.510	51.86
314502	0.329	-5.190	51.88
314601	0.328	-5.560	51.90
314700	0.328	-5.200	51.90
314802	0.328	-5.215	51.94
314901	0.322	-5.875	51.96
315000	0.331	-5.120	51.96
315100	0.332	-5.545	51.98
315201	0.331	-5.510	52.00
315300	0.331	-5.165	52.00
315401	0.332	-5.555	52.04
315502	0.327	-5.885	52.06
315602	0.337	-5.200	52.06
315700	0.336	-5.485	52.08
315800	0.332	-5.155	52.08
315901	0.331	-5.500	52.12
316002	0.332	-5.800	52.14
316100	0.332	-5.150	52.14
316200	0.335	-5.515	52.16
316302	0.335	-5.795	52.18
316402	0.333	-5.230	52.18
316500	0.332	-5.545	52.22
316601	0.335	-5.515	52.24
316701	0.335	-5.210	52.24
316801	0.337	-5.575	52.26
316900	0.333	-5.190	52.28
317000	0.331	-5.580	52.28
317102	0.336	-5.875	52.32
317200	0.335	-5.240	52.34
317301	0.334	-5.575	52.34
317400	0.334	-5.570	52.36
317502	0.338	-5.340	52.36
317600	0.332	-5.915	52.40
317700	0.336	-5.585	52.42
317800	0.335	-5.630	52.42
317901	0.323	-5.965	52.44
318000	0.339	-5.590	52.46
318101	0.341	-5.635	52.46
318202	0.339	-5.655	52.50
318300	0.338	-5.320	52.52
318400	0.340	-5.670	52.52
318500	0.337	-5.630	52.54
318602	0.338	-5.625	52.56
318701	0.339	-5.685	52.56
318800	0.341	-5.655	52.60
318902	0.339	-5.340	52.62
319001	0.340	-5.710	52.62
319100	0.341	-5.420	52.64
319200	0.342	-5.715	52.66
319302	0.341	-5.990	52.66
319402	0.344	-5.685	52.70
319500	0.346	-5.740	52.70
319602	0.344	-6.025	52.72
319702	0.343	-5.425	52.74
319801	0.342	-6.020	52.74
319900	0.345	-5.700	52.78
320000	0.345	-5.750	52.80
320102	0.342	-6.010	52.80
320202	0.346	-5.725	52.82
320301	0.344	-5.445	52.84
320400	0.331	-5.740	52.84
320501	0.334	-5.425	52.88
320601	0.346	-5.780	52.90
320701	0.345	-6.025	52.90
320801	0.346	-5.520	52.92
320900	0.338	-6.135	52.94
321002	0.336	-6.110	52.94
321102	0.346	-5.510	52.98
321201	0.344	-5.820	53.00
321301	0.344	-5.780	53.00
321401	0.345	-5.825	53.02
321500	0.347	-5.810	53.02
321600	0.347	-5.500	53.06
321702	0.348	-5.575	53.08
321801	0.346	-5.825	53.08
321901	0.352	-5.585	53.10
322001	0.353	-5.860	53.12
322101	0.348	-5.830	53.12
322200	0.347	-5.595	53.16
322301	0.353	-5.880	53.18
322401	0.351	-5.835	53.18
322502	0.352	-5.560	53.20
322600	0.353	-5.875	53.22
322702	0.348	-5.855	53.22
322800	0.352	-5.905	53.26
322901	0.353	-6.145	53.28
323002	0.350	-5.865	53.28
323100	0.352	-5.920	53.30
323200	0.355	-5.880	53.32
323300	0.352	-5.915	53.32
323402	0.350	-5.935	53.36
323502	0.354	-5.875	53.36
323601	0.349	-5.895	53.38
323702	0.357	-5.930	53.40
323802	0.358	-5.880	53.40
323901	0.356	-5.645	53.44
324000	0.358	-5.915	53.46
324101	0.361	-5.590	53.46
324201	0.357	-6.205	53.48
324301	0.361	-6.145	53.50
324400	0.357	-5.925	53.50
324501	0.354	-6.175	53.54
324602	0.355	-5.930	53.56
324700	0.354	-5.945	53.56
324802	0.353	-5.940	53.58
324901	0.343	-5.645	53.60
325000	0.354	-5.955	53.60
325100	0.354	-5.935	53.64
325202	0.353	-5.925	53.66
325301	0.356	-5.985	53.68
325401	0.356	-5.955	53.68
325500	0.355	-5.980	53.72
325601	0.355	-6.250	53.74
325701	0.352	-5.940	53.74
325801	0.353	-5.955	53.76
325901	0.355	-6.255	53.78
326001	0.355	-5.955	53.78
326101	0.356	-5.710	53.82
326201	0.357	-5.985	53.82
326300	0.357	-5.750	53.84
326400	0.357	-6.035	53.86
326501	0.354	-6.000	53.86
326601	0.351	-5.800	53.88
326702	0.352	-6.055	53.92
326800	0.359	-6.010	53.92
326902	0.356	-5.735	53.94
327002	0.358	-6.075	53.96
327101	0.357	-5.740	53.96
327200	0.359	-6.070	54.00
327302	0.358	-6.305	54.02
327402	0.361	-6.310	54.02
327501	0.359	-6.065	54.04
327601	0.357	-6.050	54.06
327701	0.358	-5.825	54.06
327802	0.358	-6.095	54.10
327900	0.358	-6.055	54.12
328001	0.357	-6.080	54.12
328102	0.363	-6.115	54.14
328202	0.357	-6.070	54.16
328301	0.358	-5.855	54.16
328401	0.360	-6.430	54.20
328502	0.358	-6.085	54.22
328602	0.359	-6.140	54.22
328701	0.363	-6.390	54.24
328802	0.357	-5.880	54.26
328901	0.362	-6.455	54.26
329001	0.362	-6.100	54.30
329100	0.362	-6.130	54.30
329202	0.361	-6.125	54.32
329302	0.361	-6.115	54.34
329401	0.362	-6.130	54.34
329501	0.363	-6.435	54.38
329601	0.362	-5.815	54.40
329701	0.362	-6.180	54.40
329801	0.363	-6.395	54.42
329901	0.363	-6.140	54.44
330002	0.360	-6.200	54.44
330102	0.359	-6.160	54.48
330201	0.361	-5.890	54.50
330301	0.359	-6.455	54.50
330401	0.356	-6.160	54.52
330501	0.361	-6.200	54.54
330600	0.357	-6.190	54.54
330701	0.356	-5.925	54.58
330801	0.359	-6.235	54.60
330901	0.359	-6.220	54.60
331000	0.359	-6.230	54.62
331101	0.360	-6.250	54.62
331201	0.361	-6.205	54.66
331300	0.360	-6.245	54.68
331401	0.359	-6.475	54.68
331502	0.362	-6.210	54.70
331600	0.359	-6.260	54.72
331701	0.371	-6.520	54.72
331800	0.355	-5.990	54.76
331902	0.358	-6.255	54.78
332000	0.349	-6.230	54.78
332101	0.350	-5.955	54.80
332201	0.361	-6.280	54.82
332301	0.360	-6.240	54.82
332400	0.365	-6.280	54.86
332500	0.360	-6.205	54.88
332601	0.346	-6.175	54.88
332702	0.371	-6.205	54.90
332800	0.361	-6.215	54.90
332900	0.354	-5.940	54.94
333002	0.362	-6.240	54.96
333102	0.358	-6.235	54.96
333201	0.359	-5.955	54.98
333301	0.362	-6.275	55.00
333401	0.361	-6.230	55.00
333502	0.359	-6.245	55.04
333601	0.363	-6.290	55.06
333700	0.360	-5.970	55.06
333801	0.361	-6.290	55.08
333902	0.359	-6.540	55.10
334000	0.366	-6.030	55.10
334100	0.362	-6.555	55.14
334201	0.363	-6.280	55.16
334300	0.363	-6.295	55.16
334400	0.363	-6.560	55.18
334501	0.361	-6.275	55.20
334602	0.364	-6.040	55.20
334700	0.358	-6.305	55.24
334801	0.359	-6.285	55.24
334902	0.357	-6.310	55.26
335001	0.360	-6.310	55.28
335100	0.358	-6.310	55.28
335200	0.361	-6.340	55.32
335301	0.362	-6.310	55.34
335401	0.361	-6.310	55.34
335501	0.363	-6.350	55.36
335601	0.364	-6.320	55.38
335702	0.361	-6.075	55.38
335800	0.360	-6.340	55.42
335900	0.365	-6.315	55.44
336001	0.360	-6.350	55.44
336102	0.359	-6.370	55.46
336201	0.360	-6.325	55.48
336301	0.358	-6.365	55.52
336402	0.359	-6.370	55.52
336501	0.357	-6.370	55.54
336601	0.358	-6.395	55.56
336700	0.361	-6.345	55.56
336802	0.357	-6.110	55.60
336900	0.357	-6.640	55.60
337001	0.357	-6.365	55.62
337101	0.355	-6.410	55.64
337201	0.355	-6.695	55.66
337302	0.355	-6.380	55.66
337402	0.357	-6.415	55.70
337500	0.355	-6.390	55.72
337600	0.360	-6.420	55.72
337701	0.356	-6.445	55.74
337801	0.354	-6.400	55.76
337900	0.355	-6.445	55.76
338001	0.354	-6.720	55.80
338101	0.351	-6.415	55.82
338201	0.352	-6.465	55.82
338301	0.353	-6.690	55.84
338400	0.351	-6.415	55.86
338501	0.353	-6.455	55.86
338600	0.353	-6.415	55.90
338701	0.352	-6.150	55.90
338801	0.358	-6.735	55.92
338901	0.348	-6.430	55.94
339001	0.348	-6.180	55.94
339101	0.354	-6.725	55.98
339202	0.353	-6.440	56.00
339301	0.350	-6.485	56.00
339401	0.350	-6.730	56.02
339500	0.353	-6.455	56.04
339601	0.351	-6.480	56.04
339702	0.351	-6.460	56.08
339801	0.351	-6.240	56.10
339901	0.353	-6.500	56.10
340002	0.351	-6.475	56.12
340101	0.351	-6.240	56.14
340200	0.352	-6.505	56.14
340301	0.350	-6.480	56.18
340402	0.350	-6.505	56.18
340500	0.349	-6.510	56.20
340601	0.352	-6.500	56.22
340701	0.353	-6.550	56.22
340801	0.349	-6.520	56.26
340902	0.350	-6.525	56.28
341001	0.352	-6.570	56.28
341101	0.349	-6.545	56.30
341201	0.350	-6.565	56.32
341302	0.349	-6.590	56.32
341401	0.352	-6.545	56.36
341502	0.350	-6.305	56.38
341601	0.353	-6.580	56.38
341702	0.351	-6.550	56.40
341801	0.352	-6.610	56.42
341901	0.351	-6.590	56.42
342001	0.348	-6.320	56.46
342101	0.350	-6.635	56.48
342201	0.355	-6.600	56.48
342302	0.354	-6.315	56.50
342401	0.346	-6.890	56.50
342501	0.353	-6.625	56.54
342600	0.350	-6.655	56.56
342701	0.348	-6.625	56.56
342801	0.351	-6.605	56.58
342901	0.348	-6.660	56.60
343000	0.340	-6.620	56.60
343101	0.345	-6.615	56.64
343201	0.348	-6.660	56.66
343300	0.351	-6.620	56.66
343400	0.350	-6.665	56.68
343501	0.349	-6.885	56.70
343601	0.353	-6.365	56.70
343700	0.347	-6.665	56.74
343801	0.351	-6.910	56.76
343901	0.346	-6.395	56.76
344001	0.350	-6.910	56.78
344101	0.350	-6.655	56.80
344200	0.348	-6.680	56.80
344301	0.351	-6.915	56.84
344402	0.349	-6.655	56.84
344501	0.352	-6.420	56.86
344601	0.350	-6.920	56.88
344701	0.349	-6.425	56.88
344801	0.350	-6.710	56.92
344901	0.350	-6.690	56.94
345001	0.350	-6.455	56.94
345100	0.341	-6.960	56.96
345200	0.349	-6.685	56.98
345302	0.348	-6.440	56.98
345402	0.346	-6.740	57.02
345501	0.348	-6.710	57.04
345601	0.351	-6.730	57.04
345702	0.351	-6.750	57.06
345801	0.351	-6.710	57.08
345902	0.351	-6.735	57.08
346001	0.350	-6.745	57.12
346102	0.344	-6.725	57.14
346200	0.350	-6.785	57.14
346301	0.357	-6.765	57.16
346402	0.351	-6.755	57.20
346500	0.354	-6.800	57.20
346601	0.351	-6.785	57.22
346702	0.352	-6.540	57.24
346802	0.352	-6.825	57.24
346900	0.354	-6.520	57.26
347000	0.354	-6.810	57.30
347100	0.354	-6.800	57.30
347201	0.352	-6.570	57.32
347300	0.351	-6.845	57.34
347400	0.352	-6.805	57.34
347501	0.353	-6.820	57.36
347602	0.353	-6.850	57.40
347701	0.354	-6.825	57.40
347801	0.354	-6.850	57.42
347901	0.353	-6.860	57.44
348002	0.354	-6.845	57.44
348101	0.351	-6.865	57.48
348202	0.352	-6.885	57.50
348301	0.352	-6.850	57.50
348400	0.356	-6.900	57.52
348500	0.353	-6.870	57.54
348602	0.353	-6.875	57.54
348702	0.355	-6.920	57.58
348801	0.354	-6.895	57.60
348901	0.352	-6.920	57.60
349002	0.354	-6.945	57.62
349101	0.351	-6.910	57.64
349201	0.352	-6.935	57.64
349301	0.355	-6.950	57.68
349401	0.345	-6.715	57.70
349501	0.357	-6.980	57.70
349601	0.354	-6.960	57.72
349701	0.354	-6.980	57.74
349800	0.354	-7.240	57.74
349901	0.356	-6.955	57.78
350001	0.355	-6.985	57.78
350101	0.352	-7.235	57.80
350200	0.352	-6.975	57.82
350301	0.361	-6.980	57.82
350401	0.354	-7.005	57.86
350500	0.352	-6.760	57.88
350600	0.354	-7.045	57.88
350701	0.351	-7.035	57.90
350801	0.353	-6.775	57.92
350900	0.351	-7.305	57.92
351001	0.354	-7.040	57.96
351100	0.352	-6.830	57.98
351201	0.351	-7.310	57.98
351301	0.350	-7.045	58.00
351400	0.353	-7.085	58.02
351502	0.355	-7.320	58.02
351601	0.354	-7.050	58.06
351701	0.352	-7.090	58.08
351801	0.351	-7.075	58.08
351901	0.352	-6.825	58.10
352002	0.353	-7.105	58.10
352100	0.353	-7.070	58.14
352202	0.352	-6.835	58.16
352302	0.351	-7.125	58.16
352400	0.349	-7.100	58.18
352500	0.354	-7.140	58.20
352600	0.350	-7.115	58.20
352701	0.352	-7.100	58.24
352802	0.346	-7.145	58.26
352900	0.347	-7.120	58.26
353002	0.350	-7.120	58.28
353101	0.350	-7.170	58.30
353200	0.351	-7.140	58.30
353301	0.350	-7.160	58.34
353402	0.352	-7.185	58.36
353502	0.350	-7.165	58.36
353600	0.340	-7.200	58.38
353700	0.351	-7.185	58.40
353802	0.348	-7.180	58.40
353901	0.354	-7.225	58.44
354001	0.354	-7.220	58.46
354100	0.353	-6.980	58.46
354202	0.348	-7.240	58.48
354301	0.347	-7.215	58.52
354400	0.350	-7.245	58.52
354501	0.351	-7.255	58.54
354601	0.353	-7.225	58.56
354702	0.349	-7.245	58.56
354800	0.353	-7.255	58.58
354901	0.349	-7.240	58.62
355001	0.353	-7.290	58.62
355102	0.340	-7.510	58.64
355201	0.354	-7.280	58.66
355301	0.350	-7.310	58.66
355401	0.353	-7.275	58.68
355500	0.353	-7.310	58.72
355601	0.349	-7.540	58.72
355701	0.352	-7.285	58.74
355801	0.353	-7.330	58.76
355900	0.353	-7.305	58.76
356000	0.352	-7.320	58.80
356102	0.350	-7.335	58.80
356200	0.350	-7.320	58.82
356301	0.353	-7.320	58.84
356402	0.349	-7.335	58.84
356502	0.351	-7.325	58.86
356600	0.349	-7.340	58.90
356700	0.363	-7.335	58.90
356801	0.342	-7.315	58.92
356902	0.351	-7.335	58.94
357001	0.359	-7.350	58.94
357100	0.360	-7.345	58.96
357201	0.356	-7.375	59.00
357301	0.352	-7.355	59.00
357402	0.352	-7.365	59.02
357500	0.350	-7.390	59.04
357601	0.355	-7.365	59.04
357702	0.352	-7.140	59.08
357800	0.353	-7.400	59.10
357900	0.353	-7.380	59.10
358002	0.354	-7.405	59.12
358101	0.354	-7.405	59.14
358200	0.349	-7.410	59.14
358301	0.353	-7.440	59.18
358402	0.352	-7.435	59.20
358501	0.353	-7.435	59.20
358600	0.353	-7.460	59.22
358701	0.353	-7.435	59.24
358802	0.354	-7.430	59.24
358902	0.360	-7.460	59.28
359001	0.352	-7.415	59.30
359101	0.351	-7.450	59.30
359200	0.352	-7.440	59.32
359301	0.350	-7.440	59.32
359400	0.353	-7.490	59.34
359501	0.352	-7.475	59.38
359601	0.352	-7.470	59.38
359702	0.352	-7.495	59.40
359800	0.354	-7.470	59.42
359900	0.348	-7.505	59.42
360002	0.351	-7.520	59.46
360102	0.350	-7.475	59.48
360200	0.351	-7.515	59.48
360301	0.353	-7.745	59.50
360401	0.352	-7.260	59.52
360501	0.350	-7.535	59.52
360600	0.350	-7.500	59.56
360700	0.353	-7.530	59.58
360800	0.350	-7.545	59.58
360901	0.346	-7.505	59.60
361000	0.350	-7.540	59.62
361100	0.352	-7.535	59.62
361201	0.351	-7.515	59.66
361302	0.351	-7.540	59.68
361401	0.347	-7.520	59.68
361500	0.350	-7.525	59.70
361600	0.354	-7.555	59.70
361702	0.350	-7.545	59.74
361802	0.352	-7.295	59.76
361900	0.351	-7.570	59.76
362000	0.350	-7.545	59.78
362102	0.349	-7.555	59.80
362202	0.353	-7.585	59.80
362300	0.353	-7.500	59.84
362402	0.352	-7.435	59.86
362502	0.353	-7.200	59.86
362600	0.350	-7.140	59.88
362701	0.355	-7.175	59.90
362800	0.351	-7.160	59.90
362901	0.351	-6.920	59.94
363000	0.351	-7.485	59.96
363100	0.340	-7.195	59.96
363202	0.351	-6.990	59.98
363302	0.352	-7.285	60.02
363400	0.354	-7.040	60.02
363500	0.354	-7.330	60.04
363602	0.352	-7.575	60.06
363702	0.357	-7.335	60.06
363800	0.353	-7.390	60.08
363901	0.352	-7.385	60.12
364002	0.351	-7.380	60.12
364102	0.351	-7.425	60.14
364200	0.350	-7.395	60.14
364301	0.357	-7.430	60.16
364402	0.354	-7.455	60.18
364501	0.353	-7.420	60.18
364601	0.356	-7.460	60.22
364702	0.354	-7.700	60.24
364802	0.345	-7.455	60.24
364902	0.353	-7.495	60.26
365002	0.354	-7.740	60.28
365101	0.353	-7.500	60.28
365201	0.353	-7.770	60.32
365300	0.354	-7.510	60.34
365401	0.354	-7.545	60.34
365502	0.356	-7.570	60.36
365600	0.354	-7.540	60.40
365700	0.359	-7.585	60.40
365801	0.357	-7.595	60.42
365902	0.355	-7.580	60.44
366000	0.355	-7.615	60.44
366100	0.353	-7.585	60.46
366201	0.359	-7.605	60.50
366301	0.355	-7.640	60.52
366401	0.355	-7.620	60.52
366501	0.354	-7.630	60.54
366601	0.357	-7.660	60.54
366701	0.354	-7.635	60.56
366800	0.345	-7.680	60.60
366901	0.354	-7.665	60.60
367001	0.355	-7.660	60.62
367100	0.355	-7.700	60.64
367200	0.355	-7.670	60.64
367301	0.356	-7.455	60.68
367402	0.357	-7.720	60.70
367501	0.353	-7.690	60.70
367601	0.357	-7.715	60.72
367700	0.357	-7.720	60.74
367801	0.356	-7.710	60.74
367900	0.359	-7.750	60.78
368001	0.357	-7.755	60.80
368102	0.357	-7.730	60.80
368202	0.356	-7.770	60.82
368300	0.344	-7.750	60.82
368400	0.357	-7.780	60.84
368501	0.362	-7.795	60.88
368601	0.357	-7.760	60.88
368700	0.356	-7.800	60.90
368802	0.360	-7.815	60.92
368901	0.358	-7.785	60.94
369001	0.358	-7.825	60.94
369101	0.358	-7.830	60.98
369200	0.363	-7.820	60.98
369301	0.354	-7.855	61.00
369402	0.358	-7.845	61.02
369502	0.358	-7.830	61.02
369601	0.350	-7.865	61.06
369702	0.360	-7.850	61.08
369801	0.357	-7.865	61.08
369901	0.358	-7.885	61.10
370002	0.358	-7.860	61.12
370101	0.358	-7.890	61.12
370201	0.355	-7.895	61.16
370300	0.356	-7.875	61.18
370402	0.355	-7.910	61.18
370500	0.355	-7.890	61.20
370600	0.355	-7.905	61.22
370701	0.354	-7.930	61.22
370802	0.355	-7.920	61.26
370901	0.355	-7.915	61.26
371000	0.357	-7.930	61.28
371102	0.358	-7.920	61.30
371201	0.354	-7.955	61.30
371301	0.352	-7.960	61.34
371400	0.354	-7.945	61.36
371502	0.353	-7.960	61.36
371602	0.353	-7.980	61.38
371701	0.351	-7.950	61.40
371800	0.353	-7.975	61.40
371901	0.354	-7.960	61.44
372001	0.354	-7.975	61.46
372100	0.353	-7.985	61.46
372202	0.353	-7.990	61.48
372301	0.356	-8.005	61.50
372402	0.352	-8.020	61.50
372501	0.347	-7.990	61.54
372602	0.350	-8.010	61.56
372701	0.353	-8.005	61.56
372800	0.349	-8.025	61.58
372900	0.352	-8.035	61.58
373001	0.351	-8.010	61.62
373102	0.352	-8.025	61.64
373200	0.353	-8.045	61.64
373301	0.352	-8.030	61.66
373402	0.353	-8.050	61.68
373500	0.360	-8.045	61.68
373601	0.356	-8.040	61.72
373702	0.351	-8.065	61.74
373802	0.353	-8.070	61.74
373900	0.350	-8.070	61.76
374000	0.352	-8.080	61.78
374101	0.351	-8.060	61.78
374202	0.350	-8.055	61.82
374301	0.351	-8.085	61.84
374401	0.350	-8.060	61.84
374501	0.353	-8.085	61.86
374602	0.349	-8.090	61.88
374700	0.351	-8.060	61.88
374802	0.357	-8.075	61.92
374901	0.350	-8.060	61.94
375002	0.350	-8.065	61.94
375102	0.352	-8.100	61.96
375200	0.353	-8.080	62.00
375302	0.350	-8.085	62.00
375402	0.345	-8.130	62.02
375500	0.345	-8.105	62.04
375600	0.351	-8.140	62.04
375700	0.350	-8.135	62.06
375801	0.348	-8.120	62.10
375901	0.354	-8.155	62.10
376000	0.350	-8.110	62.12
376101	0.350	-8.095	62.14
376202	0.350	-8.110	62.14
376302	0.352	-8.095	62.16
376400	0.350	-8.110	62.20
376501	0.345	-8.115	62.20
376601	0.352	-8.090	62.22
376702	0.339	-8.115	62.24
376800	0.354	-8.120	62.24
376901	0.353	-8.115	62.28
377001	0.346	-8.160	62.28
377101	0.352	-8.150	62.30
377202	0.350	-8.150	62.32
377301	0.349	-8.180	62.32
377400	0.352	-8.145	62.34
377501	0.347	-8.160	62.38
377602	0.349	-8.190	62.38
377702	0.343	-8.170	62.40
377800	0.348	-8.210	62.42
377902	0.349	-8.225	62.44
378002	0.349	-8.200	62.44
378101	0.352	-8.240	62.48
378200	0.345	-8.230	62.50
378302	0.349	-8.225	62.50
378402	0.350	-8.265	62.52
378501	0.351	-8.240	62.52
378601	0.344	-8.265	62.56
378701	0.348	-8.285	62.58
378801	0.349	-8.260	62.58
378900	0.348	-8.295	62.60
379000	0.343	-8.280	62.62
379102	0.345	-8.280	62.62
379202	0.349	-8.310	62.66
379300	0.349	-8.295	62.68
379401	0.348	-8.290	62.68
379501	0.348	-8.325	62.70
379601	0.346	-8.300	62.72
379700	0.349	-8.315	62.72
379802	0.351	-8.350	62.76
379901	0.351	-8.325	62.78
380001	0.349	-8.360	62.78
380101	0.349	-8.360	62.80
380202	0.349	-8.355	62.82
380302	0.348	-8.365	62.82
380400	0.358	-8.345	62.86
380501	0.336	-8.350	62.86
380601	0.335	-8.385	62.88
380701	0.357	-8.355	62.90
380801	0.348	-8.360	62.90
380901	0.349	-8.395	62.94
381001	0.350	-8.375	62.96
381102	0.350	-8.395	62.96
381200	0.350	-8.400	62.98
381301	0.349	-8.395	63.00
381401	0.350	-8.435	63.00
381502	0.348	-8.435	63.04
381601	0.351	-8.425	63.06
381701	0.349	-8.455	63.06
381801	0.348	-8.425	63.08
381901	0.347	-8.440	63.10
382001	0.347	-8.450	63.10
382100	0.349	-8.435	63.14
382202	0.347	-8.445	63.16
382301	0.347	-8.470	63.16
382402	0.348	-8.450	63.18
382500	0.348	-8.495	63.18
382602	0.346	-8.500	63.22
382702	0.348	-8.470	63.24
382802	0.351	-8.510	63.24
382901	0.346	-8.490	63.26
383001	0.345	-8.510	63.28
383100	0.349	-8.515	63.28
383201	0.351	-8.515	63.32
383300	0.347	-8.540	63.34
383401	0.346	-8.540	63.34
383501	0.348	-8.525	63.36
383601	0.347	-8.560	63.38
383700	0.349	-8.545	63.38
383801	0.347	-8.555	63.42
383901	0.346	-8.580	63.44
384001	0.348	-8.560	63.44
384100	0.335	-8.585	63.46
384200	0.345	-8.590	63.48
384301	0.345	-8.580	63.48
384402	0.345	-8.595	63.52
384501	0.344	-8.615	63.52
384601	0.345	-8.605	63.54
384702	0.344	-8.625	63.56
384802	0.347	-8.630	63.56
384901	0.345	-8.630	63.60
385002	0.342	-8.655	63.62
385101	0.347	-8.630	63.62
385202	0.345	-8.645	63.64
385301	0.345	-8.675	63.66
385402	0.345	-8.655	63.66
385501	0.344	-8.690	63.70
385601	0.346	-8.920	63.72
385701	0.345	-8.675	63.72
385801	0.344	-8.715	63.74
385900	0.348	-8.695	63.76
386000	0.345	-8.700	63.76
386102	0.344	-8.720	63.80
386202	0.347	-8.710	63.82
386300	0.347	-8.735	63.82
386401	0.342	-8.745	63.84
386501	0.344	-8.720	63.88
386601	0.343	-8.755	63.88
386700	0.343	-8.740	63.90
386801	0.344	-8.735	63.92
386902	0.342	-8.745	63.92
387002	0.346	-8.765	63.94
387101	0.343	-8.760	63.98
387200	0.343	-8.790	64.00
387301	0.342	-8.770	64.00
387401	0.343	-8.790	64.02
387502	0.333	-8.820	64.04
387601	0.343	-8.785	64.04
387701	0.342	-8.815	64.08
387801	0.343	-8.820	64.10
387901	0.342	-8.800	64.10
388001	0.344	-8.830	64.12
388101	0.345	-8.830	64.12
388202	0.343	-8.835	64.16
388301	0.340	-8.845	64.18
388400	0.332	-8.820	64.18
388502	0.341	-8.835	64.20
388602	0.342	-8.865	64.22
388701	0.346	-8.855	64.22
388802	0.344	-8.865	64.26
388902	0.336	-8.890	64.28
389000	0.344	-8.880	64.28
389101	0.344	-8.895	64.30
389201	0.340	-8.900	64.32
389301	0.341	-8.890	64.32
389402	0.344	-8.925	64.36
389502	0.341	-8.920	64.38
389600	0.337	-8.935	64.38
389700	0.341	-8.935	64.40
389802	0.342	-8.925	64.42
389902	0.343	-8.945	64.42
390001	0.339	-8.960	64.46
390101	0.343	-8.935	64.46
390202	0.343	-8.965	64.48
390302	0.343	-8.975	64.50
390400	0.342	-8.980	64.50
390501	0.346	-9.005	64.54
390602	0.342	-8.985	64.56
390701	0.343	-9.000	64.56
390801	0.342	-9.020	64.58
390901	0.340	-8.995	64.60
391001	0.343	-9.030	64.60
391100	0.340	-9.020	64.64
391200	0.342	-9.015	64.66
391301	0.344	-9.050	64.66
391401	0.343	-9.035	64.68
391501	0.342	-9.040	64.70
391601	0.341	-9.060	64.70
391701	0.341	-9.050	64.74
391801	0.341	-9.070	64.76
391902	0.342	-9.085	64.76
392001	0.344	-9.065	64.78
392101	0.344	-9.095	64.78
392202	0.343	-9.100	64.82
392301	0.342	-9.075	64.84
392400	0.338	-9.115	64.84
392502	0.343	-9.110	64.86
392602	0.346	-9.100	64.88
392701	0.341	-9.130	64.88
392801	0.325	-9.115	64.92
392901	0.343	-9.130	64.94
393001	0.343	-9.145	64.94
393101	0.344	-9.135	64.96
393201	0.342	-9.165	64.98
393302	0.341	-9.170	64.98
393402	0.342	-9.145	65.02
393500	0.344	-9.185	65.04
393601	0.342	-9.190	65.04
393702	0.343	-9.155	65.06
393801	0.344	-9.190	65.06
393901	0.340	-9.175	65.10
394001	0.340	-9.195	65.12
394102	0.340	-9.210	65.12
394201	0.341	-9.195	65.14
394302	0.343	-9.210	65.16
394402	0.341	-9.235	65.16
394501	0.343	-9.215	65.20
394601	0.342	-9.255	65.22
394701	0.342	-9.245	65.22
394801	0.344	-9.260	65.24
394901	0.343	-9.285	65.26
395000	0.339	-9.260	65.26
395101	0.344	-9.280	65.30
395201	0.341	-9.300	65.32
395300	0.343	-9.275	65.32
395401	0.343	-9.310	65.34
395501	0.341	-9.315	65.36
395601	0.342	-9.300	65.36
395701	0.342	-9.340	65.40
395800	0.331	-9.310	65.40
395901	0.341	-9.320	65.42
396001	0.339	-9.355	65.44
396101	0.340	-9.330	65.44
396201	0.343	-9.340	65.48
396301	0.339	-9.360	65.50
396401	0.341	-9.335	65.52
396502	0.340	-9.365	65.52
396600	0.340	-9.360	65.54
396701	0.344	-9.355	65.54
396801	0.340	-9.380	65.58
396900	0.344	-9.375	65.60
397002	0.343	-9.380	65.60
397101	0.342	-9.415	65.62
397201	0.340	-9.395	65.64
397301	0.343	-9.410	65.68
397400	0.340	-9.430	65.68
397502	0.341	-9.425	65.70
397602	0.339	-9.435	65.72
397701	0.343	-9.445	65.72
397802	0.339	-9.455	65.76
397901	0.342	-9.465	65.78
398002	0.343	-9.460	65.78
398101	0.341	-9.460	65.80
398202	0.339	-9.480	65.82
398302	0.343	-9.460	65.82
398400	0.343	-9.485	65.86
398500	0.342	-9.480	65.88
398601	0.344	-9.475	65.88
398701	0.340	-9.510	65.90
398800	0.342	-9.495	65.92
398900	0.340	-9.495	65.92
399002	0.335	-9.525	65.96
399102	0.344	-9.530	65.98
399200	0.349	-9.535	65.98
399300	0.342	-9.545	66.00
399402	0.343	-9.545	66.02
399501	0.345	-9.560	66.02
399600	0.338	-9.555	66.06
399700	0.342	-9.540	66.06
399802	0.339	-9.560	66.08
399902	0.340	-9.570	66.10
400001	0.343	-9.550	66.10
400101	0.341	-9.590	66.14
400201	0.339	-9.575	66.16
400300	0.342	-9.590	66.16
400401	0.341	-9.615	66.18
400501	0.340	-9.590	66.20
400602	0.343	-9.600	66.20
400701	0.339	-9.625	66.24
400802	0.340	-9.620	66.26
400902	0.344	-9.625	66.26
401001	0.340	-9.630	66.28
401100	0.342	-9.620	66.30
401202	0.341	-9.640	66.30
401301	0.340	-9.640	66.34
401402	0.340	-9.640	66.34
401501	0.344	-9.660	66.36
401602	0.341	-9.615	66.38
401701	0.341	-9.610	66.38
401801	0.350	-9.620	66.42
401902	0.337	-9.610	66.44
402002	0.340	-9.610	66.44
402102	0.338	-9.625	66.46
402200	0.338	-9.590	66.48
402301	0.342	-9.615	66.48
402402	0.339	-9.615	66.52
402502	0.341	-9.600	66.54
402601	0.343	-9.610	66.54
402701	0.341	-9.620	66.56
402801	0.344	-9.630	66.58
402901	0.339	-9.640	66.58
403000	0.344	-9.635	66.62
403102	0.341	-9.640	66.64
403202	0.343	-9.660	66.64
403301	0.342	-9.640	66.66
403401	0.344	-9.675	66.66
403501	0.343	-9.660	66.70
403602	0.344	-9.655	66.72
403702	0.342	-9.695	66.72
403800	0.346	-9.670	66.74
403900	0.336	-9.710	66.76
404001	0.327	-9.720	66.76
404101	0.355	-9.700	66.80
404201	0.341	-9.735	66.82
404301	0.344	-9.740	66.82
404401	0.343	-9.735	66.84
404500	0.343	-9.770	66.86
404600	0.344	-9.740	66.86
404701	0.336	-9.755	66.90
404801	0.344	-9.780	66.92
404901	0.342	-9.765	66.92
405002	0.342	-9.775	66.94
405101	0.343	-9.805	66.96
405201	0.342	-9.785	66.96
405302	0.352	-9.805	67.00
405402	0.343	-9.820	67.02
405500	0.346	-9.805	67.02
405602	0.344	-9.830	67.04
405701	0.343	-9.820	67.04
405801	0.342	-9.835	67.08
405901	0.340	-9.865	67.10
406002	0.340	-9.860	67.10
406102	0.342	-9.850	67.12
406202	0.344	-9.880	67.14
406300	0.343	-9.860	67.14
406402	0.341	-9.870	67.18
406501	0.340	-9.890	67.20
406600	0.331	-9.880	67.20
406701	0.346	-9.910	67.22
406802	0.341	-9.915	67.24
406901	0.338	-9.910	67.24
407001	0.342	-9.925	67.28
407102	0.340	-9.920	67.30
407202	0.337	-9.920	67.30
407301	0.339	-9.940	67.32
407402	0.338	-9.930	67.36
407500	0.340	-9.960	67.36
407600	0.345	-9.955	67.38
407702	0.339	-9.950	67.40
407802	0.341	-9.965	67.40
407901	0.341	-9.965	67.42
408001	0.344	-9.970	67.46
408102	0.342	-10.005	67.48
408202	0.343	-9.985	67.48
408300	0.341	-10.000	67.50
408401	0.342	-10.010	67.52
408502	0.344	-10.020	67.52
408601	0.341	-10.005	67.56
408701	0.341	-10.040	67.58
408802	0.339	-10.020	67.58
408902	0.341	-10.055	67.60
409002	0.334	-10.060	67.60
409100	0.340	-10.055	67.64
409201	0.339	-10.075	67.66
409302	0.343	-10.065	67.66
409402	0.340	-10.055	67.68
409501	0.346	-10.085	67.70
409601	0.340	-10.075	67.70
409701	0.338	-10.105	67.74
409801	0.341	-10.105	67.76
409900	0.342	-10.110	67.76
410002	0.343	-10.130	67.78
410101	0.340	-10.115	67.80
410202	0.341	-10.125	67.80
410301	0.340	-10.160	67.84
410400	0.348	-10.140	67.86
410502	0.338	-10.145	67.86
410602	0.346	-10.170	67.88
410700	0.341	-10.160	67.90
410802	0.339	-10.180	67.90
410902	0.341	-10.195	67.94
411002	0.339	-10.180	67.94
411100	0.342	-10.220	67.96
411201	0.345	-10.205	67.98
411301	0.343	-10.225	67.98
411400	0.337	-10.240	68.02
411501	0.340	-10.235	68.04
411602	0.344	-10.235	68.04
411701	0.342	-10.260	68.06
411801	0.339	-10.245	68.08
411901	0.337	-10.255	68.08
412002	0.338	-10.285	68.12
412101	0.336	-10.270	68.14
412201	0.340	-10.305	68.14
412302	0.332	-10.305	68.16
412401	0.339	-10.295	68.18
412501	0.340	-10.310	68.18
412600	0.339	-10.290	68.22
412701	0.340	-10.305	68.24
412801	0.338	-10.330	68.24
412901	0.340	-10.315	68.26
413001	0.340	-10.335	68.26
413101	0.338	-10.345	68.30
413201	0.340	-10.330	68.32
413302	0.338	-10.355	68.32
413401	0.340	-10.335	68.34
413500	0.340	-10.345	68.36
413601	0.339	-10.365	68.36
413702	0.340	-10.350	68.40
413800	0.341	-10.365	68.42
413902	0.340	-10.365	68.42
414002	0.338	-10.350	68.44
414101	0.340	-10.365	68.46
414200	0.339	-10.355	68.46
414301	0.338	-10.345	68.50
414402	0.336	-10.370	68.52
414502	0.340	-10.365	68.52
414601	0.341	-10.340	68.54
414702	0.339	-10.360	68.56
414801	0.340	-10.345	68.56
414901	0.336	-10.350	68.60
415000	0.339	-10.325	68.62
415101	0.339	-10.305	68.62
415202	0.338	-10.315	68.64
415300	0.341	-10.320	68.68
415401	0.339	-10.325	68.68
415501	0.339	-10.360	68.70
415602	0.336	-10.350	68.72
415702	0.338	-10.350	68.72
415802	0.331	-10.375	68.74
415902	0.339	-10.380	68.74
416001	0.338	-10.395	68.78
416100	0.340	-10.400	68.80
416202	0.339	-10.390	68.80
416302	0.339	-10.400	68.82
416402	0.341	-10.415	68.84
416501	0.338	-10.405	68.84
416602	0.339	-10.420	68.88
416702	0.337	-10.425	68.90
416801	0.338	-10.405	68.90
416901	0.340	-10.435	68.92
417001	0.337	-10.410	68.96
417102	0.329	-10.410	68.96
417201	0.340	-10.430	68.98
417301	0.336	-10.400	69.00
417401	0.338	-10.420	69.00
417500	0.331	-10.400	69.02
417601	0.337	-10.395	69.06
417702	0.338	-10.405	69.06
417802	0.339	-10.420	69.08
417902	0.340	-10.405	69.10
418002	0.338	-10.415	69.10
418102	0.338	-10.395	69.12
418201	0.339	-10.390	69.16
418301	0.338	-10.365	69.16
418400	0.340	-10.330	69.18
418502	0.338	-10.315	69.20
418602	0.343	-10.305	69.20
418702	0.340	-10.270	69.24
418802	0.339	-10.255	69.26
418902	0.338	-10.245	69.26
419001	0.338	-10.215	69.28
419102	0.339	-10.210	69.30
419200	0.339	-10.155	69.30
419300	0.337	-10.145	69.34
419402	0.337	-10.160	69.34
419502	0.342	-10.150	69.36
419601	0.339	-10.170	69.38
419700	0.341	-10.185	69.38
419801	0.340	-10.180	69.40
419901	0.335	-10.215	69.44
420001	0.338	-10.220	69.46
420101	0.333	-10.225	69.46
420202	0.337	-10.260	69.48
420300	0.338	-10.250	69.50
420401	0.341	-10.275	69.50
420501	0.337	-10.310	69.54
420601	0.339	-10.290	69.54
420700	0.341	-10.330	69.56
420800	0.341	-10.340	69.58
420901	0.340	-10.320	69.58
421002	0.334	-10.335	69.62
421101	0.338	-10.365	69.64
421201	0.340	-10.365	69.64
421302	0.339	-10.380	69.66
421402	0.339	-10.390	69.68
421501	0.338	-10.400	69.68
421601	0.341	-10.420	69.72
421701	0.329	-10.405	69.74
421801	0.342	-10.435	69.74
421901	0.340	-10.435	69.76
422001	0.338	-10.430	69.78
422101	0.338	-10.465	69.78
422201	0.336	-10.460	69.82
422301	0.344	-10.470	69.84
422400	0.340	-10.495	69.84
422501	0.338	-10.485	69.86
422602	0.339	-10.500	69.86
422700	0.338	-10.520	69.90
422801	0.340	-10.505	69.92
422901	0.337	-10.535	69.92
423002	0.336	-10.545	69.94
423102	0.340	-10.525	69.96
423200	0.330	-10.555	69.96
423301	0.341	-10.550	70.00
423401	0.339	-10.555	70.02
423501	0.329	-10.575	70.02
423602	0.339	-10.575	70.04
423702	0.337	-10.560	70.06
423801	0.343	-10.585	70.06
423902	0.342	-10.570	70.10
424002	0.338	-10.580	70.12
424101	0.339	-10.605	70.12
424201	0.341	-10.595	70.14
424301	0.339	-10.615	70.18
424401	0.339	-10.605	70.18
424501	0.341	-10.615	70.20
424601	0.338	-10.635	70.22
424702	0.335	-10.640	70.22
424802	0.340	-10.645	70.24
424901	0.338	-10.670	70.24
425001	0.340	-10.645	70.28
425102	0.339	-10.670	70.30
425201	0.342	-10.685	70.30
425301	0.342	-10.675	70.32
425401	0.340	-10.710	70.34
425502	0.341	-10.710	70.34
425601	0.336	-10.705	70.38
425701	0.342	-10.735	70.40
425801	0.338	-10.720	70.40
425901	0.341	-10.740	70.42
426002	0.341	-10.760	70.44
426101	0.341	-10.745	70.48
426202	0.339	-10.755	70.48
426302	0.337	-10.775	70.50
426401	0.343	-10.760	70.52
426500	0.349	-10.795	70.52
426601	0.331	-10.785	70.56
426701	0.346	-10.785	70.58
426801	0.349	-10.805	70.58
426902	0.337	-10.805	70.60
427002	0.341	-10.810	70.62
427101	0.341	-10.830	70.62
427201	0.341	-10.830	70.66
427301	0.341	-10.830	70.68
427402	0.340	-10.860	70.68
427501	0.343	-10.855	70.70
427600	0.340	-10.880	70.70
427701	0.340	-10.880	70.72
427801	0.335	-10.885	70.76
427902	0.339	-10.910	70.76
428001	0.339	-10.900	70.78
428101	0.339	-10.915	70.80
428202	0.341	-10.935	70.80
428302	0.341	-10.920	70.84
428402	0.342	-10.940	70.84
428502	0.338	-10.960	70.86
428601	0.337	-10.950	70.88
428700	0.339	-10.980	70.88
428801	0.340	-10.970	70.90
428901	0.339	-10.970	70.94
429001	0.344	-10.995	70.96
429102	0.342	-10.995	70.96
429202	0.340	-10.995	70.98
429301	0.343	-11.015	71.00
429401	0.341	-11.015	71.00
429502	0.340	-11.020	71.04
429601	0.343	-11.035	71.06
429701	0.340	-11.035	71.06
429800	0.330	-11.065	71.08
429901	0.340	-11.055	71.10
430002	0.331	-11.040	71.10
430101	0.339	-11.075	71.14
430200	0.340	-11.055	71.14
430302	0.339	-11.055	71.16
430401	0.337	-11.080	71.18
430501	0.338	-11.070	71.18
430601	0.337	-11.090	71.22
430701	0.334	-11.100	71.24
430802	0.338	-11.090	71.24
430900	0.337	-11.105	71.26
431001	0.333	-11.115	71.28
431101	0.338	-11.120	71.28
431202	0.341	-11.145	71.32
431302	0.339	-11.140	71.34
431402	0.340	-11.140	71.34
431501	0.340	-11.150	71.36
431600	0.340	-11.135	71.38
431702	0.334	-11.155	71.38
431801	0.337	-11.165	71.42
431901	0.339	-11.165	71.42
432001	0.338	-11.185	71.44
432101	0.338	-11.185	71.46
432201	0.338	-11.185	71.46
432302	0.341	-11.200	71.50
432401	0.340	-11.185	71.52
432501	0.335	-11.205	71.52
432601	0.338	-11.210	71.54
432702	0.338	-11.195	71.56
432801	0.341	-11.200	71.56
432902	0.337	-11.195	71.60
433001	0.337	-11.170	71.62
433102	0.342	-11.185	71.62
433202	0.339	-11.180	71.64
433301	0.338	-11.180	71.66
433401	0.339	-11.205	71.66
433501	0.339	-11.180	71.70
433602	0.338	-11.190	71.72
433702	0.338	-11.195	71.72
433802	0.343	-11.175	71.74
433902	0.340	-11.185	71.74
434002	0.341	-11.200	71.78
434101	0.339	-11.180	71.80
434201	0.337	-11.210	71.80
434301	0.339	-11.210	71.82
434401	0.338	-11.210	71.84
434500	0.341	-11.230	71.84
434601	0.338	-11.210	71.88
434702	0.337	-11.215	71.90
434801	0.338	-11.230	71.90
434902	0.340	-11.220	71.92
435002	0.340	-11.215	71.94
435102	0.341	-11.230	71.94
435201	0.338	-11.215	71.98
435301	0.340	-11.240	72.00
435401	0.340	-11.220	72.00
435502	0.338	-11.215	72.02
435601	0.339	-11.240	72.04
435700	0.338	-11.230	72.04
435801	0.341	-11.235	72.08
435902	0.345	-11.275	72.10
436002	0.337	-11.260	72.10
436101	0.339	-11.285	72.12
436202	0.337	-11.300	72.16
436302	0.343	-11.290	72.16
436402	0.340	-11.315	72.18
436501	0.340	-11.315	72.20
436602	0.344	-11.320	72.20
436701	0.341	-11.350	72.22
436801	0.340	-11.335	72.26
436901	0.341	-11.350	72.26
437001	0.337	-11.375	72.28
437101	0.338	-11.375	72.30
437201	0.340	-11.385	72.30
437302	0.340	-11.385	72.32
437400	0.340	-11.375	72.36
437502	0.338	-11.390	72.36
437601	0.340	-11.385	72.38
437701	0.340	-11.390	72.40
437800	0.343	-11.405	72.40
437901	0.340	-11.400	72.44
438001	0.341	-11.420	72.46
438102	0.338	-11.425	72.46
438201	0.339	-11.415	72.48
438302	0.342	-11.435	72.50
438400	0.340	-11.445	72.50
438501	0.338	-11.450	72.54
438601	0.342	-11.480	72.56
438702	0.345	-11.480	72.56
438802	0.345	-11.475	72.58
438902	0.340	-11.510	72.60
439000	0.340	-11.495	72.60
439102	0.340	-11.505	72.64
439201	0.339	-11.520	72.66
439301	0.340	-11.520	72.66
439400	0.342	-11.545	72.68
439502	0.341	-11.555	72.68
439601	0.340	-11.540	72.72
439702	0.339	-11.570	72.74
439800	0.341	-11.565	72.74
439902	0.342	-11.570	72.76
440002	0.339	-11.595	72.78
440101	0.340	-11.585	72.78
440202	0.340	-11.600	72.82
440302	0.335	-11.610	72.84
440402	0.340	-11.590	72.84
440502	0.340	-11.600	72.86
440601	0.339	-11.605	72.88
440702	0.339	-11.595	72.88
440801	0.330	-11.620	72.92
440902	0.343	-11.625	72.94
441001	0.338	-11.620	72.94
441101	0.340	-11.640	72.96
441202	0.338	-11.635	72.98
441301	0.343	-11.640	72.98
441400	0.341	-11.660	73.02
441501	0.345	-11.665	73.02
441602	0.340	-11.665	73.04
441701	0.340	-11.680	73.06
441801	0.339	-11.670	73.06
441902	0.340	-11.695	73.10
442002	0.336	-11.695	73.12
442101	0.338	-11.690	73.12
442202	0.332	-11.695	73.14
442302	0.341	-11.705	73.16
442402	0.341	-11.715	73.16
442502	0.341	-11.730	73.20
442601	0.340	-11.715	73.22
442702	0.342	-11.735	73.22
442801	0.347	-11.745	73.24
442900	0.340	-11.750	73.26
443002	0.342	-11.765	73.26
443102	0.341	-11.775	73.30
443201	0.340	-11.775	73.32
443301	0.345	-11.805	73.32
443401	0.343	-11.790	73.34
443500	0.347	-11.805	73.34
443600	0.347	-11.815	73.38
443702	0.340	-11.815	73.40
443801	0.326	-11.840	73.40
443901	0.340	-11.835	73.42
444001	0.342	-11.835	73.44
444101	0.340	-11.870	73.44
444202	0.339	-11.875	73.48
444301	0.340	-11.875	73.50
444401	0.344	-11.900	73.50
444501	0.341	-11.885	73.52
444602	0.341	-11.900	73.54
444701	0.340	-11.920	73.54
444800	0.343	-11.910	73.58
444900	0.336	-11.945	73.60
445001	0.341	-11.950	73.60
445102	0.340	-11.945	73.62
445201	0.335	-11.960	73.64
445301	0.339	-11.970	73.64
445401	0.341	-11.970	73.68
445501	0.341	-11.990	73.68
445600	0.337	-11.980	73.70
445701	0.340	-12.000	73.72
445801	0.334	-12.020	73.76
445901	0.344	-12.010	73.76
446000	0.338	-12.040	73.78
446102	0.339	-12.045	73.78
446202	0.339	-12.035	73.80
446301	0.336	-12.065	73.82
446400	0.338	-12.060	73.82
446502	0.335	-12.065	73.86
446601	0.331	-12.090	73.88
446702	0.337	-12.080	73.88
446801	0.338	-12.100	73.90
446902	0.335	-12.110	73.92
447001	0.336	-12.100	73.96
447102	0.325	-12.115	73.96
447202	0.337	-12.130	73.98
447301	0.340	-12.120	74.00
447402	0.338	-12.150	74.00
447502	0.339	-12.155	74.04
447600	0.338	-12.160	74.06
447701	0.339	-12.180	74.06
447802	0.336	-12.180	74.08
447901	0.337	-12.190	74.10
448001	0.334	-12.200	74.10
448101	0.335	-12.190	74.14
448202	0.336	-12.210	74.16
448302	0.338	-12.230	74.16
448401	0.339	-12.215	74.18
448502	0.338	-12.245	74.20
448601	0.338	-12.240	74.20
448701	0.337	-12.250	74.24
448800	0.338	-12.270	74.26
448902	0.336	-12.275	74.26
449002	0.337	-12.270	74.28
449102	0.333	-12.290	74.28
449201	0.324	-12.280	74.32
449301	0.349	-12.295	74.34
449401	0.341	-12.290	74.34
449501	0.332	-12.295	74.36
449600	0.341	-12.320	74.38
449701	0.336	-12.325	74.38
449802	0.340	-12.325	74.42
449902	0.338	-12.350	74.44
450001	0.339	-12.335	74.44
450101	0.340	-12.360	74.46
450201	0.336	-12.370	74.48
450301	0.336	-12.360	74.48
450401	0.333	-12.380	74.52
450501	0.338	-12.390	74.54
450601	0.336	-12.390	74.54
450702	0.337	-12.415	74.56
450802	0.340	-12.420	74.58
450902	0.339	-12.410	74.58
451002	0.340	-12.440	74.62
451101	0.336	-12.430	74.62
451201	0.338	-12.435	74.64
451300	0.337	-12.455	74.66
451400	0.336	-12.460	74.66
451502	0.337	-12.470	74.70
451601	0.337	-12.480	74.72
451701	0.337	-12.480	74.72
451800	0.339	-12.510	74.74
451902	0.336	-12.505	74.76
452002	0.335	-12.500	74.76
452101	0.335	-12.525	74.80
452201	0.336	-12.520	74.82
452301	0.338	-12.530	74.82
452401	0.335	-12.545	74.84
452500	0.336	-12.540	74.86
452602	0.338	-12.550	74.86
452702	0.338	-12.570	74.90
452802	0.336	-12.565	74.92
452900	0.337	-12.595	74.92
453002	0.334	-12.605	74.94
453101	0.335	-12.600	74.94
453201	0.336	-12.615	74.98
453300	0.335	-12.605	75.00
453401	0.337	-12.630	75.00
453502	0.335	-12.630	75.02
453601	0.335	-12.620	75.04
453700	0.334	-12.640	75.04
453801	0.335	-12.645	75.08
453901	0.331	-12.645	75.10
454001	0.335	-12.665	75.10
454101	0.338	-12.665	75.12
454202	0.338	-12.670	75.14
454301	0.336	-12.690	75.14
454401	0.330	-12.680	75.18
454501	0.334	-12.690	75.20
454602	0.332	-12.710	75.20
454702	0.335	-12.705	75.22
454802	0.335	-12.720	75.22
454902	0.336	-12.735	75.26
455001	0.335	-12.725	75.28
455102	0.335	-12.740	75.28
455203	0.336	-12.755	75.30
455302	0.339	-12.750	75.32
455402	0.335	-12.775	75.32
455500	0.335	-12.760	75.36
455601	0.346	-12.780	75.38
455702	0.333	-12.785	75.38
455802	0.337	-12.780	75.40
455902	0.336	-12.790	75.42
456001	0.335	-12.805	75.42
456102	0.336	-12.790	75.46
456202	0.333	-12.810	75.48
456302	0.334	-12.815	75.48
456400	0.335	-12.820	75.50
456501	0.335	-12.835	75.52
456602	0.336	-12.835	75.52
456701	0.337	-12.845	75.56
456801	0.335	-12.860	75.58
456902	0.337	-12.855	75.58
457002	0.336	-12.865	75.60
457101	0.336	-12.890	75.64
457201	0.335	-12.875	75.64
457301	0.338	-12.905	75.66
457401	0.337	-12.895	75.68
457501	0.336	-12.910	75.68
457602	0.333	-12.925	75.70
457701	0.338	-12.910	75.74
457802	0.338	-12.930	75.76
457901	0.333	-12.945	75.76
458002	0.337	-12.935	75.78
458101	0.335	-12.950	75.78
458202	0.334	-12.965	75.80
458301	0.341	-12.960	75.84
458401	0.335	-12.975	75.84
458501	0.337	-12.965	75.86
458600	0.335	-12.990	75.88
458702	0.334	-12.985	75.88
458801	0.336	-12.990	75.92
458902	0.329	-13.005	75.94
459000	0.342	-13.010	75.94
459102	0.337	-13.020	75.96
459201	0.339	-13.035	75.98
459301	0.336	-13.035	75.98
459401	0.336	-13.040	76.02
459501	0.338	-13.065	76.04
459602	0.336	-13.060	76.04
459701	0.340	-13.070	76.06
459802	0.337	-13.090	76.08
459901	0.334	-13.075	76.08
460002	0.339	-13.085	76.12
460101	0.336	-13.110	76.14
460201	0.336	-13.100	76.14
460302	0.338	-13.120	76.16
460401	0.335	-13.135	76.18
460501	0.333	-13.125	76.18
460601	0.335	-13.155	76.22
460700	0.327	-13.145	76.22
460800	0.337	-13.160	76.24
460901	0.329	-13.175	76.26
461002	0.335	-13.170	76.26
461100	0.334	-13.185	76.30
461202	0.340	-13.195	76.32
461302	0.335	-13.185	76.32
461401	0.336	-13.205	76.34
461502	0.335	-13.215	76.36
461602	0.335	-13.210	76.36
461701	0.336	-13.235	76.40
461801	0.335	-13.225	76.42
461901	0.336	-13.230	76.42
462001	0.335	-13.250	76.44
462102	0.334	-13.250	76.46
462201	0.339	-13.260	76.46
462302	0.335	-13.270	76.50
462401	0.335	-13.260	76.50
462501	0.333	-13.275	76.52
462601	0.335	-13.295	76.54
462701	0.331	-13.290	76.54
462801	0.331	-13.315	76.58
462901	0.333	-13.320	76.60
463001	0.331	-13.320	76.60
463101	0.335	-13.335	76.62
463201	0.337	-13.325	76.64
463301	0.339	-13.340	76.64
463401	0.337	-13.355	76.68
463501	0.336	-13.350	76.70
463601	0.334	-13.365	76.70
463702	0.335	-13.380	76.72
463801	0.337	-13.365	76.74
463902	0.336	-13.385	76.74
464000	0.336	-13.370	76.78
464100	0.335	-13.390	76.80
464201	0.335	-13.400	76.80
464302	0.335	-13.390	76.82
464402	0.335	-13.395	76.82
464502	0.335	-13.405	76.86
464602	0.335	-13.400	76.88
464701	0.336	-13.415	76.88
464801	0.337	-13.415	76.90
464901	0.335	-13.410	76.92
465001	0.338	-13.435	76.92
465101	0.335	-13.430	76.96
465200	0.336	-13.445	76.98
465301	0.334	-13.450	76.98
465401	0.339	-13.435	77.00
465501	0.334	-13.440	77.02
465602	0.335	-13.465	77.02
465701	0.334	-13.450	77.06
465802	0.329	-13.460	77.08
465901	0.336	-13.470	77.08
466002	0.335	-13.475	77.10
466101	0.339	-13.505	77.12
466202	0.335	-13.500	77.12
466301	0.337	-13.510	77.16
466401	0.336	-13.530	77.18
466501	0.338	-13.520	77.18
466601	0.334	-13.545	77.20
466702	0.335	-13.545	77.24
466801	0.324	-13.550	77.24
466902	0.339	-13.570	77.26
467001	0.336	-13.575	77.26
467102	0.336	-13.580	77.28
467202	0.335	-13.605	77.30
467302	0.338	-13.610	77.30
467401	0.337	-13.615	77.34
467502	0.334	-13.630	77.36
467602	0.334	-13.625	77.36
467701	0.333	-13.615	77.38
467800	0.337	-13.635	77.40
467902	0.331	-13.635	77.40
468002	0.337	-13.650	77.44
468102	0.336	-13.665	77.46
468200	0.335	-13.665	77.48
468301	0.338	-13.685	77.48
468402	0.335	-13.685	77.52
468501	0.333	-13.695	77.54
468600	0.337	-13.715	77.54
468702	0.336	-13.710	77.56
468802	0.335	-13.715	77.58
468901	0.334	-13.730	77.58
469002	0.333	-13.730	77.62
469102	0.334	-13.745	77.64
469202	0.336	-13.760	77.64
469301	0.342	-13.745	77.66
469401	0.338	-13.770	77.68
469501	0.336	-13.770	77.68
469601	0.334	-13.780	77.72
469702	0.336	-13.795	77.74
469801	0.336	-13.790	77.74
469902	0.337	-13.805	77.76
470002	0.338	-13.825	77.76
470101	0.334	-13.815	77.80
470201	0.337	-13.840	77.82
470302	0.336	-13.850	77.82
470401	0.336	-13.845	77.84
470501	0.335	-13.870	77.86
470601	0.336	-13.865	77.86
470702	0.334	-13.865	77.90
470801	0.338	-13.895	77.92
470901	0.335	-13.885	77.92
471002	0.334	-13.895	77.94
471101	0.335	-13.900	77.96
471201	0.337	-13.895	77.96
471302	0.337	-13.905	78.00
471402	0.341	-13.925	78.02
471501	0.329	-13.915	78.02
471602	0.322	-13.935	78.04
471701	0.346	-13.940	78.06
471802	0.335	-13.945	78.06
471901	0.339	-13.965	78.10
472002	0.337	-13.955	78.10
472101	0.337	-13.970	78.12
472201	0.338	-13.975	78.14
472301	0.338	-13.970	78.14
472402	0.339	-13.985	78.18
472500	0.340	-13.995	78.20
472601	0.336	-13.995	78.20
472701	0.337	-14.015	78.22
472801	0.333	-14.005	78.24
472901	0.338	-14.015	78.24
473002	0.336	-14.035	78.28
473101	0.338	-14.030	78.30
473202	0.339	-14.030	78.30
473300	0.337	-14.035	78.32
473401	0.339	-14.035	78.34
473501	0.340	-14.060	78.34
473601	0.336	-14.055	78.38
473701	0.335	-14.060	78.40
473802	0.335	-14.080	78.40
473902	0.337	-14.085	78.42
474002	0.336	-14.080	78.42
474102	0.333	-14.105	78.46
474201	0.332	-14.090	78.48
474301	0.336	-14.110	78.50
474401	0.336	-14.115	78.50
474502	0.335	-14.120	78.52
474602	0.334	-14.125	78.56
474701	0.336	-14.135	78.56
474802	0.336	-14.130	78.58
474902	0.336	-14.150	78.60
475002	0.335	-14.155	78.60
475102	0.339	-14.145	78.62
475201	0.334	-14.165	78.66
475302	0.335	-14.175	78.66
475401	0.333	-14.175	78.68
475501	0.336	-14.185	78.68
475601	0.333	-14.175	78.70
475701	0.333	-14.195	78.72
475801	0.335	-14.210	78.72
475902	0.334	-14.200	78.76
476002	0.334	-14.225	78.78
476102	0.335	-14.225	78.78
476201	0.333	-14.225	78.80
476302	0.333	-14.245	78.84
476402	0.334	-14.235	78.84
476501	0.334	-14.250	78.86
476602	0.335	-14.260	78.86
476701	0.334	-14.250	78.88
476801	0.343	-14.275	78.90
476902	0.335	-14.280	78.90
477000	0.334	-14.275	78.94
477102	0.332	-14.300	78.96
477201	0.335	-14.290	78.98
477300	0.333	-14.305	78.98
477401	0.335	-14.320	79.00
477501	0.335	-14.310	79.00
477601	0.333	-14.320	79.04
477700	0.330	-14.320	79.06
477801	0.335	-14.320	79.06
477902	0.325	-14.330	79.08
478001	0.334	-14.330	79.12
478101	0.335	-14.325	79.12
478202	0.334	-14.345	79.14
478301	0.336	-14.340	79.16
478401	0.336	-14.345	79.16
478501	0.334	-14.355	79.18
478601	0.335	-14.350	79.22
478702	0.334	-14.355	79.22
478801	0.335	-14.370	79.24
478901	0.334	-14.360	79.26
479002	0.336	-14.375	79.26
479101	0.337	-14.380	79.28
479201	0.332	-14.375	79.32
479302	0.335	-14.395	79.32
479401	0.336	-14.390	79.34
479502	0.333	-14.385	79.36
479601	0.334	-14.410	79.36
479701	0.334	-14.400	79.40
479801	0.335	-14.415	79.42
479902	0.333	-14.430	79.42
480001	0.335	-14.415	79.44
480101	0.334	-14.440	79.46
480202	0.334	-14.450	79.46
480302	0.333	-14.435	79.50
480402	0.334	-14.445	79.52
480502	0.333	-14.440	79.52
480601	0.335	-14.420	79.54
480702	0.338	-14.420	79.56
480802	0.336	-14.400	79.56
480901	0.339	-14.395	79.60
481001	0.334	-14.390	79.62
481101	0.335	-14.360	79.62
481202	0.337	-14.345	79.64
481300	0.329	-14.325	79.66
481401	0.336	-14.315	79.66
481501	0.337	-14.340	79.70
481601	0.339	-14.325	79.70
481701	0.336	-14.320	79.72
481802	0.335	-14.350	79.74
481901	0.335	-14.335	79.74
482002	0.336	-14.345	79.78
482101	0.337	-14.355	79.80
482201	0.335	-14.325	79.80
482302	0.338	-14.320	79.82
482402	0.333	-14.320	79.84
482501	0.336	-14.310	79.84
482601	0.335	-14.340	79.88
482701	0.336	-14.330	79.90
482801	0.334	-14.350	79.90
482901	0.335	-14.355	79.92
483002	0.335	-14.360	79.94
483101	0.335	-14.365	79.94
483201	0.337	-14.355	79.98
483301	0.336	-14.320	80.00
483401	0.336	-14.330	80.00
483502	0.335	-14.335	80.02
483602	0.335	-14.315	80.02
483701	0.339	-14.320	80.06
483801	0.338	-14.290	80.08
483901	0.337	-14.260	80.08
484001	0.336	-14.220	80.10
484102	0.335	-14.180	80.12
484201	0.340	-14.140	80.12
484302	0.338	-14.105	80.16
484401	0.336	-14.080	80.18
484501	0.338	-14.085	80.18
484601	0.335	-14.085	80.20
484701	0.335	-14.090	80.22
484801	0.336	-14.115	80.22
484902	0.331	-14.135	80.26
485002	0.335	-14.155	80.28
485102	0.334	-14.195	80.28
485201	0.337	-14.195	80.30
485302	0.333	-14.215	80.30
485402	0.336	-14.235	80.34
485502	0.337	-14.220	80.36
485602	0.343	-14.225	80.36
485701	0.338	-14.195	80.38
485802	0.339	-14.175	80.40
485901	0.334	-14.200	80.40
486001	0.340	-14.205	80.44
486101	0.337	-14.215	80.46
486202	0.337	-14.240	80.48
486301	0.326	-14.245	80.48
486401	0.340	-14.270	80.50
486502	0.339	-14.285	80.54
486600	0.338	-14.285	80.54
486701	0.334	-14.310	80.56
486801	0.340	-14.320	80.58
486901	0.343	-14.340	80.58
487002	0.338	-14.365	80.60
487101	0.339	-14.370	80.64
487202	0.336	-14.385	80.64
487301	0.339	-14.425	80.66
487401	0.337	-14.420	80.66
487501	0.339	-14.445	80.68
487602	0.339	-14.460	80.72
487702	0.337	-14.470	80.72
487802	0.334	-14.495	80.74
487902	0.345	-14.510	80.76
488001	0.339	-14.505	80.76
488102	0.342	-14.540	80.78
488200	0.339	-14.540	80.82
488302	0.330	-14.555	80.82
488401	0.337	-14.575	80.84
488501	0.329	-14.580	80.86
488601	0.337	-14.605	80.86
488701	0.332	-14.620	80.88
488801	0.338	-14.615	80.92
488901	0.338	-14.645	80.92
489002	0.338	-14.660	80.94
489101	0.341	-14.660	80.96
489201	0.342	-14.685	80.96
489300	0.339	-14.680	81.00
489402	0.337	-14.690	81.02
489501	0.334	-14.715	81.02
489602	0.339	-14.715	81.04
489700	0.335	-14.735	81.06
489802	0.337	-14.750	81.06
489901	0.337	-14.750	81.10
490002	0.335	-14.765	81.10
490102	0.336	-14.780	81.12
490201	0.341	-14.775	81.14
490302	0.337	-14.795	81.16
490401	0.336	-14.785	81.16
490501	0.329	-14.795	81.20
490601	0.343	-14.815	81.22
490701	0.340	-14.810	81.22
490800	0.339	-14.820	81.24
490901	0.338	-14.825	81.24
491002	0.319	-14.825	81.26
491102	0.343	-14.840	81.30
491201	0.341	-14.845	81.30
491301	0.335	-14.845	81.32
491401	0.339	-14.865	81.34
491502	0.336	-14.860	81.34
491601	0.339	-14.860	81.38
491701	0.344	-14.880	81.40
491801	0.336	-14.875	81.40
491902	0.340	-14.875	81.42
492001	0.339	-14.900	81.44
492102	0.337	-14.890	81.44
492201	0.339	-14.905	81.48
492301	0.339	-14.905	81.50
492401	0.339	-14.910	81.50
492502	0.337	-14.915	81.52
492601	0.338	-14.910	81.54
492701	0.335	-14.915	81.54
492801	0.343	-14.925	81.58
492902	0.343	-14.925	81.58
493002	0.343	-14.915	81.60
493101	0.341	-14.915	81.62
493201	0.344	-14.915	81.62
493302	0.345	-14.925	81.66
493402	0.342	-14.945	81.68
493502	0.330	-14.930	81.68
493601	0.323	-14.955	81.70
493702	0.348	-14.950	81.72
493802	0.327	-14.950	81.72
493902	0.351	-14.975	81.76
494001	0.341	-14.965	81.78
494101	0.340	-14.980	81.78
494202	0.343	-14.995	81.80
494302	0.343	-14.990	81.82
494402	0.339	-15.005	81.82
494501	0.342	-15.015	81.86
494601	0.339	-15.020	81.88
494702	0.342	-15.040	81.88
494801	0.342	-15.035	81.90
494902	0.341	-15.035	81.90
495002	0.343	-15.060	81.94
495102	0.342	-15.050	81.96
495201	0.341	-15.070	81.98
495302	0.346	-15.070	81.98
495402	0.348	-15.060	82.00
495502	0.345	-15.055	82.04
495602	0.344	-15.065	82.04
495702	0.339	-15.040	82.06
495801	0.343	-15.060	82.08
495902	0.341	-15.060	82.08
496002	0.344	-15.050	82.10
496101	0.344	-15.075	82.14
496201	0.342	-15.060	82.14
496301	0.348	-15.080	82.16
496402	0.344	-15.090	82.18
496501	0.344	-15.080	82.18
496601	0.342	-15.110	82.20
496702	0.347	-15.115	82.24
496801	0.347	-15.110	82.24
496901	0.343	-15.135	82.26
497002	0.344	-15.140	82.28
497102	0.346	-15.145	82.28
497202	0.341	-15.170	82.32
497302	0.340	-15.165	82.34
497401	0.345	-15.185	82.34
497500	0.333	-15.195	82.36
497602	0.343	-15.200	82.38
497701	0.343	-15.220	82.38
497801	0.340	-15.230	82.42
497901	0.339	-15.240	82.44
498001	0.341	-15.260	82.44
498101	0.343	-15.265	82.46
498201	0.339	-15.280	82.48
498302	0.340	-15.300	82.48
498400	0.341	-15.295	82.52
498502	0.340	-15.310	82.54
498601	0.340	-15.335	82.54
498701	0.339	-15.340	82.56
498801	0.339	-15.360	82.56
498902	0.339	-15.370	82.60
499002	0.339	-15.375	82.62
499100	0.341	-15.405	82.62
499202	0.341	-15.405	82.64
499301	0.333	-15.410	82.66
499402	0.341	-15.425	82.66
499501	0.340	-15.420	82.70
499601	0.340	-15.425	82.72
499701	0.341	-15.435	82.72
499801	0.347	-15.430	82.74
499902	0.337	-15.445	82.76
500002	0.339	-15.445	82.76
500101	0.334	-15.450	82.80
500202	0.333	-15.465	82.82
500302	0.333	-15.480	82.82
500401	0.330	-15.490	82.84
500501	0.331	-15.505	82.84
500601	0.333	-15.505	82.88
500701	0.339	-15.525	82.90
500801	0.333	-15.540	82.90
500902	0.339	-15.540	82.92
501001	0.331	-15.565	82.94
501101	0.335	-15.570	82.94
501201	0.335	-15.575	82.98
501302	0.332	-15.600	83.00
501401	0.333	-15.600	83.00
501501	0.332	-15.610	83.02
501601	0.334	-15.635	83.04
501702	0.335	-15.635	83.04
501802	0.338	-15.640	83.08
501902	0.338	-15.660	83.10
502001	0.348	-15.665	83.10
502101	0.333	-15.690	83.12
502202	0.336	-15.705	83.14
502301	0.338	-15.705	83.14
502402	0.337	-15.725	83.18
502502	0.337	-15.735	83.18
502601	0.338	-15.735	83.20
502702	0.335	-15.755	83.22
502802	0.330	-15.755	83.22
502901	0.333	-15.775	83.26
503001	0.335	-15.790	83.28
503101	0.327	-15.785	83.28
503201	0.325	-15.805	83.30
503302	0.325	-15.820	83.32
503402	0.327	-15.820	83.32
503502	0.327	-15.840	83.36
503600	0.334	-15.835	83.38
503702	0.337	-15.845	83.38
503801	0.332	-15.860	83.40
503901	0.332	-15.850	83.42
504001	0.336	-15.850	83.42
504102	0.330	-15.875	83.46
504201	0.335	-15.870	83.48
504301	0.332	-15.895	83.48
504401	0.335	-15.900	83.50
504501	0.331	-15.900	83.50
504602	0.336	-15.930	83.54
504702	0.330	-15.925	83.56
504802	0.317	-15.930	83.56
504902	0.335	-15.955	83.58
505001	0.329	-15.960	83.60
505102	0.326	-15.945	83.60
505201	0.329	-15.970	83.64
505301	0.327	-15.965	83.66
505401	0.329	-15.985	83.66
505502	0.329	-15.995	83.68
505601	0.326	-15.995	83.70
505701	0.328	-16.020	83.70
505801	0.328	-16.015	83.74
505901	0.328	-16.030	83.76
506002	0.326	-16.050	83.76
506101	0.325	-16.040	83.78
506202	0.322	-16.055	83.80
506301	0.323	-16.060	83.80
506401	0.322	-16.055	83.84
506501	0.321	-16.080	83.86
506602	0.322	-16.090	83.86
506700	0.323	-16.090	83.88
506801	0.325	-16.105	83.92
506902	0.323	-16.110	83.92
507001	0.326	-16.130	83.94
507100	0.322	-16.140	83.96
507202	0.321	-16.140	83.98
507301	0.320	-16.150	83.98
507402	0.314	-16.160	84.02
507502	0.315	-16.155	84.04
507602	0.310	-16.175	84.04
507701	0.307	-16.170	84.06
507801	0.308	-16.180	84.08
507902	0.311	-16.195	84.08
508001	0.307	-16.190	84.12
508101	0.308	-16.205	84.12
508201	0.306	-16.210	84.14
508302	0.305	-16.210	84.16
508402	0.308	-16.215	84.16
508501	0.305	-16.225	84.20
508601	0.305	-16.220	84.22
508701	0.305	-16.240	84.22
508802	0.307	-16.255	84.24
508901	0.304	-16.250	84.26
509003	0.303	-16.260	84.26
509102	0.303	-16.280	84.30
509202	0.302	-16.280	84.32
509301	0.305	-16.300	84.32
509401	0.306	-16.300	84.34
509502	0.295	-16.305	84.36
509602	0.300	-16.330	84.36
509701	0.302	-16.325	84.40
509801	0.303	-16.345	84.42
509902	0.311	-16.355	84.42
510002	0.304	-16.350	84.44
510102	0.304	-16.380	84.44
510202	0.302	-16.380	84.48
510301	0.303	-16.385	84.50
510402	0.302	-16.400	84.50
510502	0.296	-16.390	84.52
510601	0.302	-16.410	84.54
510702	0.302	-16.420	84.54
510801	0.303	-16.415	84.58
510902	0.304	-16.435	84.60
511002	0.302	-16.445	84.60
511102	0.303	-16.440	84.62
511201	0.305	-16.460	84.64
511301	0.305	-16.465	84.64
511402	0.302	-16.470	84.68
511502	0.304	-16.490	84.70
511601	0.303	-16.485	84.70
511701	0.297	-16.505	84.72
511802	0.301	-16.515	84.74
511902	0.310	-16.525	84.74
512001	0.299	-16.535	84.78
512102	0.301	-16.545	84.78
512201	0.302	-16.545	84.80
512301	0.298	-16.565	84.82
512401	0.303	-16.560	84.82
512501	0.300	-16.575	84.86
512601	0.300	-16.595	84.88
512701	0.310	-16.590	84.88
512802	0.302	-16.605	84.90
512902	0.297	-16.615	84.92
513002	0.298	-16.610	84.92
513101	0.293	-16.630	84.96
513201	0.305	-16.635	84.98
513301	0.303	-16.630	84.98
513402	0.304	-16.660	85.00
513502	0.301	-16.655	85.02
513601	0.305	-16.665	85.02
513701	0.310	-16.680	85.06
513801	0.306	-16.675	85.08
513902	0.302	-16.685	85.08
514001	0.305	-16.705	85.10
514102	0.304	-16.700	85.10
514201	0.303	-16.710	85.14
514301	0.308	-16.715	85.16
514400	0.304	-16.725	85.16
514502	0.305	-16.740	85.18
514601	0.313	-16.735	85.20
514702	0.313	-16.745	85.20
514801	0.307	-16.755	85.24
514901	0.314	-16.755	85.26
515002	0.311	-16.765	85.26
515102	0.320	-16.775	85.28
515202	0.313	-16.775	85.30
515302	0.318	-16.785	85.30
515401	0.318	-16.785	85.34
515502	0.314	-16.775	85.36
515601	0.317	-16.795	85.36
515702	0.326	-16.800	85.38
515801	0.323	-16.800	85.38
515901	0.331	-16.815	85.42
516001	0.341	-16.805	85.44
516102	0.340	-16.815	85.44
516201	0.334	-16.825	85.46
516300	0.356	-16.820	85.48
516402	0.346	-16.830	85.48
516502	0.377	-16.835	85.52
516602	0.368	-16.830	85.54
516701	0.396	-16.845	85.54
516801	0.405	-16.835	85.56
516902	0.343	-16.830	85.58
517001	0.373	-16.835	85.58
517101	0.349	-16.765	85.62
517202	0.326	-16.655	85.64
517301	0.323	-16.520	85.64
517401	0.338	-16.385	85.66
517502	0.346	-16.300	85.68
517602	0.347	-16.255	85.68
517702	0.333	-16.190	85.72
517802	0.328	-16.090	85.74
517901	0.348	-15.955	85.74
518001	0.303	-15.860	85.76
518102	0.317	-15.805	85.80
518201	0.308	-15.760	85.80
518301	0.302	-15.755	85.82
518402	0.308	-15.750	85.84
518501	0.298	-15.710	85.84
518602	0.340	-15.675	85.86
518701	0.289	-15.595	85.90
518802	0.306	-15.540	85.92
518901	0.297	-15.515	85.92
519002	0.290	-15.500	85.94
519102	0.289	-15.485	85.96
519201	0.287	-15.515	85.96
519301	0.288	-15.535	86.00
519402	0.285	-15.575	86.02
519501	0.284	-15.615	86.02
519602	0.287	-15.625	86.04
519702	0.275	-15.655	86.04
519802	0.280	-15.695	86.08
519901	0.278	-15.710	86.10
520002	0.277	-15.745	86.10
520101	0.276	-15.770	86.12
520201	0.274	-15.795	86.14
520301	0.274	-15.830	86.14
520402	0.275	-15.845	86.18
520502	0.272	-15.845	86.20
520602	0.274	-15.880	86.20
520702	0.275	-15.900	86.22
520802	0.275	-15.930	86.24
520902	0.280	-15.940	86.24
521002	0.274	-15.925	86.28
521102	0.272	-15.925	86.30
521201	0.266	-15.915	86.30
521302	0.272	-15.925	86.32
521402	0.277	-15.915	86.34
521502	0.276	-15.885	86.34
521601	0.267	-15.870	86.38
521702	0.275	-15.855	86.38
521802	0.267	-15.805	86.40
521901	0.264	-15.795	86.42
522001	0.264	-15.775	86.42
522102	0.264	-15.775	86.46
522202	0.259	-15.770	86.48
522302	0.258	-15.745	86.48
522401	0.253	-15.765	86.50
522502	0.254	-15.785	86.52
522602	0.253	-15.790	86.52
522701	0.251	-15.810	86.56
522800	0.253	-15.825	86.58
522901	0.255	-15.840	86.58
523002	0.255	-15.880	86.60
523102	0.254	-15.905	86.62
523202	0.250	-15.925	86.62
523301	0.249	-15.980	86.66
523401	0.247	-15.995	86.66
523502	0.249	-16.030	86.68
523602	0.247	-16.070	86.70
523701	0.250	-16.080	86.70
523802	0.248	-16.110	86.74
523902	0.249	-16.130	86.76
524001	0.245	-16.135	86.76
524101	0.248	-16.160	86.78
524201	0.249	-16.160	86.80
524302	0.248	-16.175	86.80
524402	0.249	-16.205	86.84
524502	0.246	-16.220	86.86
524602	0.246	-16.240	86.86
524702	0.245	-16.275	86.88
524801	0.247	-16.275	86.90
524901	0.246	-16.305	86.90
525002	0.246	-16.330	86.94
525101	0.241	-16.340	86.96
525201	0.241	-16.370	86.96
525302	0.245	-16.395	86.98
525402	0.242	-16.405	86.98
525502	0.239	-16.440	87.02
525602	0.242	-16.445	87.04
525702	0.238	-16.460	87.04
525801	0.237	-16.490	87.06
525901	0.233	-16.505	87.08
526001	0.237	-16.530	87.08
526101	0.239	-16.545	87.12
526202	0.240	-16.555	87.14
526301	0.240	-16.580	87.14
526401	0.236	-16.580	87.16
526501	0.236	-16.595	87.18
526601	0.242	-16.625	87.18
526701	0.237	-16.630	87.22
526801	0.233	-16.655	87.24
526902	0.232	-16.675	87.24
527001	0.234	-16.675	87.26
527102	0.232	-16.690	87.28
527202	0.231	-16.720	87.28
527302	0.232	-16.725	87.32
527402	0.233	-16.745	87.32
527501	0.227	-16.745	87.34
527601	0.226	-16.755	87.36
527701	0.229	-16.780	87.36
527801	0.229	-16.775	87.40
527901	0.224	-16.790	87.42
528001	0.226	-16.815	87.42
528101	0.227	-16.810	87.44
528202	0.227	-16.830	87.46
528301	0.229	-16.845	87.46
528401	0.225	-16.845	87.50
528502	0.230	-16.865	87.52
528602	0.226	-16.880	87.52
528701	0.216	-16.895	87.54
528802	0.228	-16.910	87.56
528901	0.229	-16.905	87.56
529001	0.224	-16.920	87.60
529101	0.227	-16.940	87.62
529202	0.229	-16.945	87.62
529302	0.231	-16.955	87.64
529402	0.228	-16.970	87.68
529502	0.223	-16.975	87.70
529602	0.227	-16.990	87.70
529700	0.227	-16.990	87.72
529801	0.222	-17.005	87.72
529902	0.228	-17.030	87.74
530002	0.222	-17.045	87.78
530102	0.230	-17.035	87.78
530201	0.229	-17.075	87.80
530302	0.234	-17.075	87.82
530401	0.230	-17.075	87.82
530502	0.230	-17.060	87.84
530602	0.229	-17.050	87.88
530701	0.227	-17.075	87.88
530802	0.228	-17.090	87.90
530901	0.231	-17.090	87.92
531002	0.230	-17.120	87.92
531101	0.227	-17.120	87.96
531201	0.225	-17.140	87.98
531302	0.226	-17.155	87.98
531402	0.228	-17.155	88.00
531502	0.228	-17.165	88.02
531602	0.230	-17.180	88.02
531701	0.226	-17.170	88.06
531802	0.228	-17.190	88.08
531901	0.228	-17.190	88.08
532001	0.230	-17.195	88.10
532101	0.228	-17.210	88.12
532201	0.230	-17.220	88.12
532301	0.226	-17.220	88.16
532401	0.224	-17.225	88.18
532501	0.227	-17.225	88.18
532601	0.226	-17.230	88.20
532702	0.227	-17.230	88.22
532801	0.227	-17.220	88.22
532901	0.228	-17.235	88.26
533001	0.229	-17.230	88.26
533102	0.218	-17.215	88.28
533202	0.235	-17.220	88.30
533302	0.237	-17.210	88.30
533401	0.233	-17.210	88.34
533501	0.234	-17.205	88.36
533601	0.239	-17.190	88.36
533703	0.232	-17.195	88.38
533802	0.233	-17.215	88.40
533901	0.230	-17.210	88.40
534002	0.233	-17.235	88.44
534102	0.230	-17.245	88.46
534201	0.233	-17.255	88.46
534302	0.229	-17.270	88.48
534401	0.232	-17.280	88.50
534502	0.232	-17.285	88.50
534601	0.232	-17.305	88.54
534701	0.237	-17.300	88.56
534801	0.234	-17.320	88.56
534902	0.240	-17.330	88.58
535001	0.238	-17.325	88.58
535101	0.231	-17.350	88.62
535201	0.245	-17.360	88.64
535302	0.248	-17.360	88.64
535401	0.236	-17.390	88.66
535501	0.239	-17.385	88.68
535602	0.238	-17.400	88.68
535702	0.239	-17.420	88.72
535802	0.237	-17.410	88.74
535901	0.236	-17.420	88.74
536002	0.237	-17.430	88.76
536102	0.239	-17.425	88.78
536201	0.242	-17.445	88.78
536301	0.245	-17.445	88.82
536402	0.244	-17.395	88.84
536502	0.249	-17.390	88.84
536601	0.251	-17.360	88.86
536702	0.249	-17.365	88.88
536801	0.244	-17.375	88.88
536901	0.244	-17.375	88.92
537002	0.239	-17.390	88.92
537101	0.242	-17.400	88.94
537201	0.246	-17.400	88.96
537302	0.241	-17.410	88.96
537402	0.245	-17.425	89.00
537502	0.246	-17.420	89.02
537602	0.248	-17.435	89.02
537701	0.249	-17.420	89.04
537802	0.248	-17.410	89.06
537902	0.250	-17.405	89.06
538001	0.237	-17.380	89.10
538101	0.242	-17.355	89.12
538201	0.241	-17.300	89.12
538301	0.242	-17.270	89.14
538401	0.235	-17.260	89.16
538501	0.235	-17.245	89.16
538602	0.239	-17.205	89.20
538701	0.252	-17.185	89.22
538801	0.240	-17.165	89.22
538902	0.237	-17.115	89.24
539002	0.255	-17.070	89.28
539101	0.247	-16.955	89.28
539202	0.251	-16.885	89.30
539302	0.253	-16.805	89.30
539401	0.261	-16.770	89.32
539501	0.259	-16.785	89.34
539602	0.256	-16.810	89.34
539702	0.254	-16.820	89.38
539802	0.250	-16.870	89.40
539901	0.233	-16.890	89.40
540002	0.242	-16.920	89.42
540101	0.242	-16.960	89.44
540201	0.242	-16.950	89.48
540301	0.236	-16.965	89.48
540401	0.247	-16.980	89.50
540502	0.252	-16.970	89.52
540602	0.262	-16.965	89.52
540702	0.258	-16.945	89.56
540801	0.242	-16.910	89.58
540902	0.260	-16.900	89.58
541001	0.255	-16.885	89.60
541102	0.252	-16.885	89.62
541202	0.260	-16.895	89.62
541301	0.255	-16.890	89.66
541401	0.259	-16.920	89.68
541501	0.256	-16.925	89.68
541602	0.252	-16.925	89.70
541700	0.259	-16.955	89.72
541801	0.254	-16.965	89.72
541902	0.254	-16.965	89.76
542001	0.250	-16.970	89.78
542102	0.248	-16.965	89.78
542201	0.248	-16.970	89.80
542302	0.254	-16.955	89.82
542402	0.242	-16.915	89.82
542501	0.245	-16.890	89.86
542601	0.247	-16.850	89.86
542702	0.265	-16.805	89.88
542801	0.252	-16.770	89.90
542902	0.264	-16.775	89.90
543002	0.261	-16.780	89.94
543101	0.266	-16.800	89.96
543201	0.261	-16.805	89.96
543301	0.260	-16.790	89.98
543401	0.258	-16.770	90.00
543501	0.261	-16.755	90.00
543602	0.260	-16.745	90.04
543702	0.265	-16.725	90.06
543802	0.277	-16.695	90.06
543901	0.264	-16.705	90.08
544002	0.276	-16.675	90.10
544101	0.272	-16.650	90.10
544201	0.282	-16.665	90.14
544301	0.287	-16.670	90.16
544402	0.283	-16.695	90.16
544502	0.279	-16.725	90.18
544602	0.281	-16.740	90.22
544702	0.278	-16.765	90.22
544801	0.281	-16.800	90.24
544902	0.279	-16.810	90.24
545002	0.279	-16.850	90.26
545102	0.267	-16.870	90.28
545201	0.285	-16.880	90.28
545301	0.290	-16.910	90.32
545401	0.309	-16.910	90.34
545502	0.312	-16.935	90.34
545602	0.295	-16.965	90.36
545701	0.539	-16.950	90.38
545802	0.572	-16.925	90.38
545902	0.439	-16.910	90.42
546002	0.394	-16.895	90.44
546102	0.453	-16.900	90.44
546201	0.420	-16.905	90.46
546301	0.344	-16.925	90.50
546402	0.473	-16.960	90.50
546501	0.437	-16.975	90.52
546602	0.336	-17.000	90.54
546701	0.435	-17.030	90.54
546802	0.489	-17.055	90.56
546901	0.503	-17.085	90.60
547001	0.449	-17.110	90.60
547102	0.477	-17.120	90.62
547201	0.520	-17.160	90.64
547301	0.380	-17.170	90.64
547402	10.547	-17.195	90.66
547502	10.547	-17.230	90.70
547601	10.547	-17.240	90.70
547702	10.547	-17.265	90.72
547801	10.547	-17.300	90.74
547901	10.547	-17.300	90.74
548001	10.547	-17.330	90.76
548102	10.547	-17.345	90.76
548202	10.547	-17.350	90.80
548301	10.547	-17.380	90.82
548401	10.547	-17.380	90.82
548501	10.547	-17.400	90.84
548601	10.547	-17.425	90.88
548703	10.547	-17.440	90.90
548802	10.547	-17.445	90.90
548902	10.547	-17.475	90.92
549001	10.547	-17.475	90.94
549101	10.547	-17.495	90.94
549202	10.547	-17.510	90.98
549302	10.547	-17.505	91.00
549403	10.547	-17.525	91.00
549502	10.547	-17.535	91.02
549602	10.547	-17.535	91.04
549701	10.547	-17.560	91.04
549802	10.547	-17.570	91.08
549902	10.547	-17.580	91.10
550001	10.547	-17.600	91.10
550102	10.547	-17.610	91.12
550202	10.547	-17.630	91.12
550301	10.547	-17.650	91.16
550401	10.547	-17.655	91.18
550502	10.547	-17.685	91.18
550601	10.547	-17.690	91.20
550702	10.547	-17.710	91.22
550802	10.547	-17.740	91.22
550902	10.547	-17.755	91.26
551001	10.547	-17.775	91.28
551101	10.547	-17.795	91.28
551201	10.547	-17.795	91.30
551301	10.547	-17.820	91.32
551401	10.547	-17.835	91.32
551501	10.547	-17.840	91.36
551602	10.547	-17.865	91.38
551701	10.547	-17.870	91.38
551801	10.547	-17.880	91.40
551901	10.547	-17.905	91.42
552002	10.547	-17.910	91.42
552102	10.547	-17.910	91.46
552201	10.547	-17.925	91.46
552302	10.547	-17.900	91.48
552401	10.547	-17.900	91.50
552502	10.547	-17.870	91.50
552602	10.547	-17.855	91.54
552701	10.547	-17.870	91.56
552802	10.547	-17.875	91.56
552901	10.547	-17.875	91.58
553002	10.547	-17.880	91.60
553102	10.547	-17.870	91.60
553202	10.547	-17.860	91.64
553301	10.547	-17.870	91.66
553402	10.547	-17.860	91.66
553502	10.547	-17.860	91.68
553601	10.547	-17.870	91.70
553702	10.547	-17.860	91.70
553802	10.547	-17.850	91.74
553902	10.547	-17.815	91.76
554001	10.547	-17.745	91.76
554102	10.547	-17.650	91.78
554202	10.547	-17.570	91.82
554302	10.547	-17.540	91.82
554402	10.547	-17.540	91.84
554502	10.547	-17.505	91.86
554602	10.547	-17.410	91.86
554702	10.547	-17.200	91.88
554801	10.547	-17.085	91.92
554902	10.547	-17.085	91.92
555001	10.547	-17.065	91.94
555102	10.547	-17.005	91.96
555202	10.547	-16.980	91.96
555301	10.547	-16.940	91.98
555401	10.547	-16.945	92.02
555501	10.547	-16.890	92.04
555601	10.547	-16.775	92.04
555701	10.547	-16.630	92.06
555802	10.547	-16.480	92.06
555902	10.547	-16.305	92.10
556002	10.547	-16.195	92.12
556101	10.547	-16.110	92.12
556201	10.547	-16.075	92.14
556301	10.547	-16.035	92.16
556401	10.547	-16.000	92.16
556501	10.547	-16.015	92.20
556602	10.547	-16.050	92.22
556701	10.547	-16.070	92.22
556802	10.547	-16.115	92.24
556901	10.547	-16.135	92.26
557001	10.547	-16.145	92.26
557101	10.547	-16.180	92.30
557202	10.547	-16.195	92.32
557301	10.547	-16.190	92.32
557401	10.547	-16.220	92.34
557502	10.547	-16.220	92.36
557601	10.547	-16.230	92.36
557702	10.547	-16.270	92.40
557801	10.547	-16.280	92.40
557902	10.547	-16.315	92.42
558001	10.547	-16.345	92.44
558101	10.547	-16.265	92.44
558201	10.547	-16.250	92.48
558302	10.547	-16.265	92.50
558402	10.547	-16.290	92.50
558501	10.547	-16.345	92.52
558602	10.547	-16.375	92.54
558701	10.547	-16.405	92.54
558801	10.547	-16.440	92.58
558901	10.547	-16.465	92.60
559001	10.547	-16.515	92.60
559101	10.547	-16.555	92.62
559201	10.547	-16.590	92.64
559301	10.547	-16.635	92.64
559402	10.547	-16.665	92.68
559501	10.547	-16.685	92.70
559601	10.547	-16.710	92.70
559702	10.547	-16.720	92.72
559801	10.547	-16.745	92.72
559902	10.547	-16.785	92.76
560002	10.547	-16.790	92.78
560101	10.547	-16.825	92.78
560202	10.547	-16.860	92.80
560301	10.547	-16.880	92.82
560402	10.547	-16.935	92.82
560502	10.547	-16.970	92.86
560601	10.547	-17.005	92.88
560702	10.547	-17.050	92.88
560802	10.547	-17.075	92.90
560902	10.547	-17.110	92.92
561002	10.547	-17.155	92.92
561102	10.547	-17.175	92.96
561201	10.547	-17.215	92.98
561301	10.547	-17.245	92.98
561402	10.547	-17.255	93.00
561501	10.547	-17.300	93.00
561602	10.547	-17.320	93.04
561702	10.547	-17.335	93.06
561802	10.547	-17.380	93.06
561902	10.547	-17.390	93.08
562001	10.547	-17.420	93.10
562102	10.547	-17.450	93.10
562202	10.547	-17.460	93.14
562302	10.547	-17.480	93.16
562401	10.547	-17.500	93.16
562502	10.547	-17.500	93.18
562601	10.547	-17.510	93.20
562701	10.547	-17.490	93.20
562802	10.547	-17.485	93.24
562902	10.547	-17.500	93.26
563001	10.547	-17.505	93.26
563102	10.547	-17.435	93.26
563203	10.547	-17.375	93.26
563302	10.547	-17.325	93.26
563402	10.547	-17.280	93.26
563502	10.547	-17.240	93.26
563601	10.547	-17.200	93.26
563701	10.547	-17.160	93.26
563802	10.547	-17.125	93.26
563901	10.547	-17.085	93.26
564001	10.547	-17.050	93.26
564102	10.547	-17.015	93.26
564201	10.547	-16.985	93.26
