Time(ms)	Voltage(V)	Force(N)	Distance(mm)
100	0.026	0.000	0.02
200	0.030	0.000	0.02
302	0.029	0.000	0.02
401	0.027	0.000	0.02
501	0.029	0.000	0.02
600	0.029	0.000	0.02
701	0.026	0.000	0.02
801	0.030	0.000	0.02
901	0.026	0.000	0.02
1000	0.029	0.000	0.02
1100	0.030	0.000	0.02
1202	0.029	0.000	0.02
1301	0.027	0.000	0.02
1400	0.032	0.000	0.02
1501	0.030	0.000	0.02
1601	0.028	0.000	0.02
1701	0.030	-0.030	0.02
1801	0.029	0.000	0.04
1901	0.028	-0.020	0.06
2000	0.030	-0.305	0.06
2100	0.029	-0.010	0.10
2201	0.028	-0.045	0.12
2301	0.028	-0.055	0.12
2401	0.030	-0.050	0.14
2501	0.025	-0.095	0.16
2601	0.030	-0.105	0.16
2700	0.029	0.105	0.20
2801	0.028	-0.190	0.22
2901	0.029	-0.230	0.22
3001	0.028	-0.260	0.24
3102	0.029	-0.345	0.26
3200	0.028	-0.380	0.26
3300	0.030	-0.450	0.30
3401	0.030	-0.360	0.30
3500	0.031	-0.300	0.32
3601	0.030	-0.345	0.34
3701	0.030	-0.635	0.34
3801	0.031	-0.385	0.38
3900	0.031	-0.460	0.40
4000	0.031	-0.445	0.40
4102	0.031	-0.470	0.42
4200	0.031	-0.540	0.44
4300	0.032	-0.520	0.44
4400	0.033	-0.565	0.48
4501	0.034	-0.605	0.50
4601	0.033	-0.570	0.50
4701	0.036	-0.605	0.52
4800	0.034	-0.630	0.54
4900	0.035	-0.620	0.54
5000	0.033	-0.680	0.58
5102	0.033	-0.615	0.60
5201	0.033	-0.630	0.60
5300	0.037	-0.690	0.62
5400	0.036	-0.210	0.62
5501	0.034	-0.415	0.66
5600	0.034	-0.475	0.68
5701	0.033	-0.475	0.68
5800	0.033	-0.535	0.70
5901	0.033	-0.560	0.72
6001	0.035	-0.560	0.72
6101	0.027	-0.620	0.76
6201	0.033	-0.630	0.78
6301	0.026	-0.625	0.78
6401	0.035	-0.685	0.80
6500	0.035	-0.530	0.82
6602	0.034	-0.565	0.82
6700	0.034	-0.855	0.86
6801	0.035	-0.620	0.88
6901	0.033	-0.665	0.88
7000	0.036	-0.670	0.90
7101	0.034	-0.665	0.92
7201	0.036	-0.715	0.92
7301	0.037	-0.725	0.96
7400	0.036	-0.675	0.96
7501	0.036	-0.735	0.98
7602	0.037	-0.735	1.00
7701	0.037	-0.455	1.00
7800	0.024	-0.935	1.04
7901	0.039	-0.680	1.06
8002	0.040	-0.725	1.06
8100	0.039	-0.725	1.08
8201	0.040	-0.705	1.10
8300	0.039	-1.020	1.10
8400	0.038	-0.750	1.14
8501	0.037	-0.745	1.16
8601	0.036	-0.800	1.16
8701	0.037	-0.770	1.18
8800	0.036	-0.795	1.20
8901	0.036	-0.820	1.20
9001	0.039	-0.790	1.24
9102	0.036	-0.570	1.26
9201	0.039	-0.820	1.26
9300	0.035	-0.570	1.28
9401	0.037	-0.865	1.28
9501	0.041	-0.770	1.32
9601	0.037	-0.535	1.34
9700	0.041	-1.120	1.34
9800	0.042	-0.810	1.36
9900	0.044	-0.865	1.38
10001	0.049	-1.140	1.38
10101	0.051	-0.865	1.42
10200	0.052	-0.890	1.44
10301	0.059	-0.915	1.46
10402	0.061	-0.865	1.46
10501	0.060	-0.890	1.48
10600	0.070	-0.885	1.52
10702	0.066	-0.890	1.52
10801	0.063	-0.935	1.54
10900	0.067	-0.925	1.56
11000	0.064	-0.950	1.56
11102	0.059	-0.970	1.60
11201	0.059	-0.940	1.62
11301	0.061	-0.595	1.62
11401	0.057	-0.965	1.64
11502	0.063	-0.645	1.66
11601	0.067	-0.670	1.66
11700	0.068	-0.655	1.70
11801	0.081	-0.395	1.72
11901	0.080	-0.750	1.72
12000	0.083	-0.715	1.74
12101	0.086	-0.515	1.76
12200	0.088	-0.775	1.76
12301	0.085	-0.780	1.80
12401	0.092	-0.800	1.82
12501	0.079	-1.055	1.82
12601	0.084	-0.545	1.84
12700	0.082	-0.850	1.86
12800	0.077	-0.825	1.86
12900	0.076	-0.860	1.90
13002	0.071	-0.895	1.90
13100	0.070	-0.860	1.92
13202	0.082	-0.625	1.94
13301	0.078	-0.930	1.94
13401	0.073	-0.905	1.98
13500	0.071	-0.945	2.00
13601	0.073	-1.260	2.00
13700	0.084	-0.635	2.02
13800	0.089	-0.645	2.04
13901	0.075	-0.955	2.04
14000	0.089	-0.670	2.08
14100	0.085	-1.245	2.10
14202	0.091	-0.750	2.10
14301	0.088	-0.495	2.12
14400	0.090	-1.040	2.14
14500	0.094	-0.470	2.14
14602	0.098	-0.515	2.18
14700	0.092	-1.070	2.20
14801	0.090	-0.790	2.20
14900	0.094	-1.110	2.22
15002	0.096	-1.160	2.22
15100	0.094	-0.555	2.26
15200	0.102	-1.175	2.28
15301	0.091	-0.880	2.28
15401	0.096	-0.620	2.30
15500	0.092	-1.165	2.32
15601	0.100	-0.895	2.32
15700	0.090	-0.950	2.36
15801	0.099	-1.230	2.38
15900	0.101	-0.650	2.38
16001	0.104	-0.965	2.40
16101	0.100	-0.890	2.42
16200	0.107	-0.680	2.42
16301	0.103	-0.970	2.46
16401	0.106	-0.955	2.48
16501	0.111	-0.955	2.48
16600	0.108	-1.190	2.50
16700	0.109	-0.670	2.52
16800	0.107	-0.995	2.52
16900	0.109	-0.980	2.56
17002	0.117	-0.975	2.58
17101	0.113	-1.025	2.58
17200	0.109	-1.000	2.60
17301	0.111	-0.765	2.64
17401	0.106	-1.030	2.64
17502	0.106	-0.970	2.66
17601	0.110	-0.990	2.68
17701	0.109	-1.030	2.68
17801	0.112	-0.965	2.70
17901	0.113	-0.975	2.70
18000	0.109	-0.960	2.74
18100	0.116	-0.625	2.76
18202	0.117	-0.865	2.76
18300	0.115	-0.895	2.78
18400	0.130	-0.930	2.80
18501	0.128	-0.980	2.80
18601	0.124	-0.965	2.84
18700	0.116	-1.010	2.84
18800	0.123	-1.010	2.86
18901	0.119	-0.995	2.88
19001	0.121	-1.020	2.88
19100	0.122	-1.015	2.92
19200	0.114	-1.025	2.94
19301	0.113	-1.050	2.94
19401	0.116	-0.985	2.96
19500	0.122	-0.785	2.98
19600	0.118	-1.320	2.98
19701	0.113	-1.015	3.02
19801	0.118	-0.965	3.04
19900	0.117	-1.000	3.04
20000	0.122	-0.645	3.06
20101	0.127	-0.915	3.08
20201	0.123	-0.915	3.08
20300	0.122	-0.615	3.12
20400	0.120	-0.980	3.14
20500	0.114	-0.950	3.14
20601	0.118	-0.720	3.16
20700	0.125	-1.320	3.20
20801	0.116	-0.975	3.20
20901	0.111	-0.705	3.22
21000	0.113	-1.205	3.24
21101	0.115	-0.975	3.24
21200	0.122	-1.025	3.26
21301	0.121	-1.315	3.30
21402	0.131	-1.010	3.30
21500	0.120	-1.070	3.32
21601	0.130	-1.350	3.34
21701	0.137	-0.730	3.34
21801	0.108	-1.315	3.36
21901	0.108	-1.315	3.40
22000	0.121	-1.095	3.40
22101	0.106	-1.365	3.42
22201	0.113	-1.050	3.44
22301	0.112	-0.810	3.44
22401	0.104	-1.365	3.46
22501	0.107	-0.765	3.50
22601	0.110	-0.770	3.50
22701	0.109	-1.375	3.52
22800	0.108	-0.790	3.54
22902	0.129	-1.120	3.54
23001	0.116	-1.100	3.58
23100	0.126	-1.130	3.60
23201	0.114	-1.150	3.60
23300	0.125	-0.820	3.62
23401	0.132	-1.120	3.64
23501	0.124	-1.460	3.64
23600	0.130	-0.780	3.68
23700	0.149	-1.150	3.70
23801	0.140	-1.365	3.70
23900	0.136	-0.585	3.72
24001	0.129	-0.850	3.74
24101	0.133	-0.820	3.74
24202	0.142	-0.505	3.78
24300	0.142	-1.205	3.80
24400	0.142	-0.855	3.80
24502	0.144	-0.545	3.82
24601	0.136	-1.275	3.82
24701	0.140	-0.895	3.86
24800	0.137	-1.220	3.88
24901	0.135	-0.950	3.88
25000	0.130	-0.655	3.90
25101	0.134	-1.015	3.92
25201	0.126	-0.990	3.92
25301	0.124	-0.695	3.96
25401	0.124	-1.340	3.98
25502	0.130	-1.020	3.98
25601	0.121	-0.810	4.00
25701	0.122	-1.390	4.02
25801	0.123	-0.740	4.02
25900	0.126	-1.115	4.06
26001	0.126	-1.335	4.08
26101	0.128	-0.760	4.08
26201	0.139	-1.420	4.10
26301	0.144	-1.110	4.10
26400	0.167	-1.140	4.14
26500	0.147	-1.155	4.16
26600	0.159	-0.850	4.16
26700	0.179	-1.170	4.18
26800	0.151	-1.150	4.20
26902	0.162	-1.140	4.20
27000	0.158	-1.190	4.24
27101	0.132	-1.430	4.26
27200	0.151	-0.930	4.26
27302	0.134	-1.190	4.28
27401	0.124	-1.180	4.30
27501	0.124	-1.155	4.30
27600	0.124	-1.185	4.34
27700	0.128	-0.870	4.36
27801	0.133	-1.205	4.36
27901	0.133	-1.485	4.38
28001	0.136	-0.890	4.40
28101	0.136	-1.205	4.40
28200	0.136	-1.180	4.44
28300	0.132	-1.205	4.44
28401	0.129	-1.235	4.46
28501	0.132	-1.190	4.48
28601	0.131	-0.950	4.52
28701	0.127	-1.505	4.52
28801	0.129	-0.950	4.54
28900	0.125	-1.260	4.56
29001	0.126	-1.540	4.56
29101	0.123	-0.995	4.58
29200	0.121	-1.535	4.62
29301	0.145	-1.250	4.62
29400	0.123	-0.970	4.64
29501	0.123	-1.240	4.66
29601	0.123	-1.240	4.66
29702	0.123	-0.990	4.68
29800	0.123	-1.535	4.72
29901	0.112	-1.255	4.72
30000	0.124	-1.305	4.74
30102	0.125	-1.565	4.74
30201	0.154	-1.275	4.76
30300	0.145	-1.145	4.80
30402	0.139	-1.400	4.80
30502	0.139	-0.870	4.82
30601	0.134	-1.175	4.82
30701	0.138	-1.145	4.84
30801	0.138	-1.175	4.86
30901	0.139	-1.215	4.86
31000	0.131	-0.915	4.90
31100	0.134	-1.245	4.92
31201	0.130	-1.515	4.92
31302	0.128	-1.210	4.94
31400	0.123	-1.280	4.96
31501	0.126	-1.260	4.96
31602	0.123	-1.020	5.00
31700	0.124	-1.550	5.02
31800	0.126	-1.245	5.02
31900	0.126	-1.300	5.04
32002	0.125	-1.540	5.06
32100	0.126	-1.005	5.06
32200	0.126	-1.330	5.10
32301	0.118	-1.520	5.12
32401	0.126	-1.265	5.12
32501	0.127	-1.330	5.14
32600	0.126	-1.300	5.18
32702	0.125	-1.290	5.18
32800	0.126	-1.660	5.20
32900	0.126	-1.280	5.22
33001	0.129	-0.990	5.22
33100	0.126	-1.555	5.24
33202	0.128	-1.310	5.28
33301	0.124	-0.995	5.28
33401	0.125	-1.690	5.30
33501	0.133	-1.050	5.32
33601	0.129	-1.060	5.32
33700	0.139	-1.330	5.34
33800	0.142	-1.080	5.38
33900	0.139	-1.690	5.38
34002	0.139	-1.365	5.40
34101	0.137	-1.055	5.42
34201	0.156	-1.410	5.42
34300	0.152	-0.785	5.46
34400	0.152	-1.165	5.48
34501	0.148	-1.520	5.48
34600	0.147	-0.840	5.50
34702	0.145	-0.965	5.52
34800	0.146	-1.200	5.52
34900	0.147	-0.950	5.56
35001	0.169	-1.285	5.58
35102	0.161	-1.050	5.58
35201	0.158	-0.705	5.60
35300	0.154	-1.320	5.62
35402	0.157	-1.035	5.62
35501	0.161	-1.095	5.66
35600	0.157	-1.075	5.68
35700	0.151	-0.785	5.68
35802	0.152	-1.120	5.70
35902	0.148	-1.460	5.70
36001	0.154	-0.760	5.74
36101	0.149	-1.170	5.76
36202	0.152	-1.370	5.76
36301	0.154	-1.170	5.78
36401	0.145	-1.475	5.80
36501	0.155	-1.085	5.80
36601	0.149	-1.145	5.84
36700	0.149	-1.385	5.86
36800	0.155	-0.805	5.86
36900	0.147	-1.475	5.88
37001	0.154	-1.175	5.90
37100	0.153	-0.915	5.90
37200	0.146	-1.505	5.94
37301	0.144	-1.185	5.96
37401	0.147	-0.880	5.96
37500	0.146	-1.505	5.98
37601	0.145	-1.205	6.00
37701	0.146	-1.260	6.00
37801	0.145	-1.575	6.04
37900	0.146	-0.890	6.06
38000	0.147	-1.600	6.06
38101	0.145	-1.540	6.08
38201	0.145	-0.965	6.08
38300	0.148	-1.640	6.12
38400	0.143	-1.015	6.14
38502	0.149	-0.985	6.14
38601	0.152	-1.585	6.16
38701	0.155	-1.290	6.18
38801	0.153	-1.330	6.18
38900	0.152	-1.600	6.22
39000	0.153	-1.000	6.24
39101	0.175	-1.370	6.24
39201	0.152	-1.625	6.26
39301	0.157	-1.055	6.28
39400	0.155	-1.685	6.28
39502	0.157	-1.345	6.32
39601	0.160	-1.110	6.34
39701	0.163	-1.640	6.34
39802	0.159	-1.370	6.36
39901	0.158	-1.395	6.40
40001	0.158	-1.675	6.40
40101	0.161	-1.370	6.42
40201	0.164	-1.425	6.44
40302	0.154	-1.665	6.44
40400	0.162	-1.420	6.46
40501	0.163	-1.440	6.50
40601	0.162	-1.400	6.50
40700	0.162	-1.440	6.52
40801	0.168	-1.460	6.54
40902	0.176	-1.425	6.54
41000	0.173	-1.465	6.56
41100	0.177	-1.430	6.60
41200	0.169	-1.175	6.60
41301	0.174	-1.465	6.62
41401	0.167	-1.740	6.64
41500	0.173	-1.330	6.64
41601	0.166	-1.355	6.68
41701	0.167	-1.325	6.70
41800	0.173	-1.120	6.70
41901	0.167	-1.670	6.72
42000	0.176	-1.045	6.74
42102	0.176	-1.090	6.74
42200	0.179	-1.370	6.78
42301	0.188	-1.365	6.80
42400	0.178	-1.430	6.80
42502	0.173	-1.680	6.82
42601	0.174	-0.995	6.82
42700	0.186	-1.585	6.84
42801	0.180	-1.245	6.88
42902	0.178	-0.915	6.88
43002	0.182	-1.230	6.90
43101	0.178	-1.220	6.92
43201	0.180	-1.270	6.92
43300	0.183	-1.255	6.94
43401	0.183	-1.000	6.98
43500	0.181	-1.610	6.98
43600	0.186	-1.295	7.00
43701	0.190	-1.065	7.02
43800	0.188	-1.605	7.02
43901	0.199	-1.345	7.06
44001	0.198	-1.370	7.08
44101	0.201	-1.635	7.08
44201	0.226	-1.375	7.10
44301	0.245	-1.410	7.10
44401	0.210	-1.665	7.12
44502	0.211	-1.350	7.16
44601	0.239	-1.400	7.16
44701	0.243	-1.625	7.18
44800	0.213	-1.155	7.20
44901	0.250	-1.665	7.20
45001	0.232	-1.410	7.22
45101	0.250	-1.150	7.26
45201	0.199	-1.705	7.26
45302	0.195	-1.425	7.28
45401	0.200	-1.070	7.30
45501	0.197	-1.745	7.30
45600	0.234	-1.090	7.34
45700	0.216	-1.725	7.36
45801	0.221	-1.695	7.36
45901	0.211	-1.135	7.38
46001	0.240	-1.500	7.40
46101	0.223	-1.460	7.40
46201	0.230	-1.230	7.44
46300	0.264	-1.835	7.46
46400	0.255	-1.155	7.46
46501	0.249	-1.470	7.48
46601	0.247	-1.790	7.50
46702	0.293	-1.440	7.50
46800	0.191	-1.490	7.54
46902	0.175	-1.545	7.56
47000	0.183	-1.010	7.56
47101	0.171	-1.295	7.58
47201	0.172	-1.275	7.60
47301	0.178	-1.060	7.60
47400	0.176	-1.355	7.64
47500	0.181	-0.990	7.64
47601	0.182	-1.365	7.66
47700	0.177	-1.610	7.68
47800	0.183	-1.070	7.68
47901	0.182	-1.425	7.72
48000	0.185	-1.380	7.74
48100	0.197	-1.420	7.74
48201	0.186	-1.415	7.76
48301	0.185	-1.390	7.78
48401	0.194	-1.135	7.78
48500	0.194	-1.685	7.82
48602	0.193	-1.425	7.84
48700	0.201	-1.465	7.84
48801	0.198	-1.165	7.86
48901	0.205	-1.035	7.88
49002	0.203	-1.270	7.88
49100	0.243	-1.250	7.92
49201	0.242	-0.830	7.94
49301	0.250	-1.490	7.94
49401	0.231	-1.160	7.96
49501	0.242	-0.890	8.00
49601	0.234	-1.565	8.00
49701	0.230	-0.935	8.02
49801	0.239	-1.240	8.04
49901	0.245	-1.600	8.04
50000	0.205	-0.945	8.06
50101	0.204	-1.315	8.10
50200	0.202	-1.275	8.10
50301	0.202	-0.970	8.12
50401	0.198	-1.360	8.14
50502	0.200	-1.335	8.14
50601	0.196	-1.000	8.16
50701	0.196	-1.400	8.16
50801	0.204	-1.370	8.20
50900	0.203	-1.420	8.22
51000	0.197	-1.380	8.22
51101	0.201	-1.065	8.24
51201	0.200	-1.445	8.28
51300	0.214	-1.405	8.28
51401	0.218	-1.135	8.30
51501	0.200	-1.725	8.32
51602	0.200	-1.440	8.32
51700	0.206	-1.475	8.34
51801	0.202	-1.490	8.38
51901	0.204	-1.445	8.38
52001	0.204	-1.500	8.40
52100	0.204	-1.475	8.42
52200	0.204	-1.485	8.42
52300	0.206	-1.825	8.44
52400	0.205	-1.790	8.48
52501	0.206	-1.215	8.48
52601	0.204	-1.540	8.50
52701	0.200	-1.495	8.52
52800	0.203	-1.530	8.54
52901	0.202	-1.555	8.54
53001	0.201	-1.515	8.58
53100	0.211	-1.565	8.58
53200	0.209	-1.515	8.60
53300	0.208	-1.505	8.62
53401	0.207	-1.535	8.62
53501	0.255	-1.525	8.66
53600	0.239	-1.265	8.68
53702	0.233	-1.250	8.68
53801	0.229	-1.235	8.70
53901	0.224	-1.035	8.72
54000	0.224	-1.285	8.72
54100	0.219	-1.045	8.76
54200	0.218	-1.325	8.78
54301	0.222	-1.620	8.78
54401	0.222	-1.050	8.80
54500	0.214	-1.620	8.80
54601	0.217	-1.335	8.82
54700	0.217	-1.360	8.86
54802	0.218	-1.390	8.86
54902	0.217	-1.370	8.88
55000	0.224	-1.400	8.90
55101	0.221	-1.670	8.90
55201	0.222	-1.395	8.94
55301	0.219	-1.440	8.96
55401	0.216	-1.685	8.96
55501	0.218	-1.140	8.98
55600	0.218	-1.480	9.00
55700	0.217	-1.450	9.00
55800	0.224	-1.475	9.04
55902	0.224	-1.500	9.06
56001	0.217	-1.485	9.06
56100	0.221	-1.515	9.08
56201	0.219	-1.765	9.10
56302	0.214	-1.495	9.10
56401	0.217	-1.520	9.14
56500	0.220	-1.510	9.16
56600	0.222	-1.240	9.16
56701	0.217	-1.525	9.18
56801	0.217	-1.515	9.18
56901	0.211	-1.260	9.22
57001	0.211	-1.775	9.24
57100	0.220	-1.485	9.24
57201	0.222	-1.295	9.26
57301	0.232	-1.810	9.28
57401	0.228	-1.260	9.28
57501	0.221	-1.545	9.32
57601	0.216	-1.860	9.34
57701	0.214	-1.255	9.34
57802	0.215	-1.575	9.36
57900	0.222	-1.545	9.38
58001	0.224	-1.230	9.38
58100	0.222	-1.950	9.42
58202	0.217	-1.935	9.44
58300	0.227	-1.595	9.44
58400	0.225	-1.920	9.46
58500	0.227	-1.210	9.48
58601	0.225	-1.310	9.48
58701	0.230	-1.970	9.52
58800	0.211	-1.260	9.52
58900	0.222	-1.960	9.54
59002	0.233	-1.985	9.56
59100	0.233	-1.640	9.56
59200	0.227	-1.895	9.60
59302	0.223	-1.715	9.62
59400	0.233	-1.525	9.62
59500	0.221	-1.770	9.64
59600	0.230	-1.150	9.66
59702	0.230	-1.195	9.70
59800	0.226	-1.565	9.70
59900	0.224	-1.260	9.72
60001	0.228	-1.560	9.74
60101	0.226	-1.530	9.74
60201	0.226	-1.200	9.76
60300	0.227	-1.920	9.80
60401	0.233	-1.780	9.80
60502	0.235	-1.215	9.82
60601	0.233	-1.930	9.84
60701	0.236	-1.310	9.84
60800	0.228	-1.635	9.88
60902	0.232	-1.910	9.90
61001	0.236	-1.245	9.90
61100	0.235	-1.925	9.92
61200	0.236	-1.605	9.94
61302	0.239	-1.360	9.94
61401	0.237	-1.940	9.98
61500	0.229	-1.305	10.00
61601	0.232	-1.420	10.00
61702	0.223	-1.970	10.02
61800	0.238	-1.320	10.04
61901	0.234	-1.680	10.04
62002	0.239	-2.060	10.08
62102	0.237	-1.650	10.10
62200	0.237	-2.010	10.10
62300	0.248	-1.660	10.12
62402	0.240	-1.360	10.14
62502	0.245	-1.635	10.14
62601	0.236	-1.940	10.18
62700	0.241	-1.660	10.18
62801	0.238	-1.925	10.20
62901	0.237	-1.975	10.22
63000	0.240	-1.680	10.22
63101	0.230	-1.870	10.26
63201	0.238	-1.845	10.28
63300	0.248	-1.910	10.28
63400	0.251	-1.580	10.30
63502	0.253	-1.200	10.32
63601	0.246	-1.590	10.32
63700	0.243	-1.305	10.36
63802	0.246	-1.285	10.38
63900	0.242	-1.860	10.38
64001	0.244	-1.600	10.40
64100	0.253	-1.650	10.42
64201	0.259	-1.615	10.42
64300	0.259	-1.405	10.46
64400	0.254	-1.925	10.46
64500	0.257	-1.635	10.48
64601	0.254	-1.645	10.50
64700	0.256	-1.680	10.50
64801	0.261	-1.650	10.54
64900	0.266	-1.695	10.56
65001	0.264	-1.955	10.56
65101	0.265	-1.665	10.58
65201	0.263	-1.710	10.60
65301	0.264	-1.960	10.60
65401	0.266	-1.460	10.64
65500	0.265	-1.745	10.66
65600	0.262	-1.700	10.66
65701	0.262	-1.445	10.68
65801	0.258	-2.020	10.70
65900	0.244	-1.675	10.70
66000	0.249	-1.695	10.74
66102	0.247	-1.720	10.76
66202	0.244	-1.685	10.76
66300	0.247	-1.740	10.78
66400	0.248	-1.705	10.78
66500	0.255	-1.445	10.82
66601	0.271	-1.730	10.84
66701	0.276	-1.665	10.84
66800	0.272	-1.415	10.86
66901	0.265	-1.980	10.88
67000	0.267	-1.685	10.88
67101	0.273	-1.720	10.92
67200	0.274	-1.720	10.94
67301	0.279	-1.710	10.94
67400	0.273	-1.765	10.96
67500	0.265	-1.745	10.98
67600	0.260	-1.490	10.98
67700	0.267	-2.060	11.02
67802	0.266	-2.075	11.04
67900	0.267	-1.530	11.04
68000	0.260	-2.085	11.06
68101	0.265	-1.750	11.08
68202	0.273	-1.480	11.08
68301	0.276	-2.105	11.12
68401	0.272	-1.765	11.12
68500	0.270	-1.825	11.14
68601	0.279	-2.135	11.16
68701	0.275	-1.795	11.16
68800	0.265	-2.085	11.20
68900	0.320	-1.800	11.22
69001	0.303	-1.350	11.22
69101	0.300	-1.565	11.24
69200	0.301	-1.530	11.26
69300	0.299	-1.580	11.26
69401	0.297	-1.880	11.30
69501	0.301	-1.570	11.32
69601	0.299	-1.630	11.32
69700	0.297	-1.620	11.34
69800	0.298	-1.330	11.36
69900	0.294	-1.930	11.36
70002	0.293	-1.950	11.40
70100	0.290	-1.375	11.42
70201	0.288	-2.035	11.42
70300	0.301	-1.650	11.44
70400	0.297	-1.715	11.48
70501	0.287	-2.025	11.50
70600	0.292	-1.340	11.50
70701	0.294	-1.475	11.52
70801	0.296	-2.110	11.54
70900	0.300	-1.330	11.54
71001	0.297	-1.775	11.58
71101	0.297	-1.970	11.60
71201	0.305	-1.380	11.60
71301	0.298	-2.040	11.62
71400	0.296	-1.690	11.64
71501	0.300	-1.415	11.64
71600	0.303	-2.110	11.68
71702	0.301	-1.725	11.70
71801	0.296	-1.455	11.70
71901	0.305	-2.155	11.72
72002	0.300	-1.740	11.72
72101	0.287	-1.805	11.76
72200	0.302	-1.765	11.78
72300	0.290	-1.800	11.78
72402	0.302	-1.830	11.80
72500	0.291	-1.775	11.82
72601	0.303	-1.470	11.82
72701	0.293	-2.120	11.86
72800	0.302	-1.405	11.88
72900	0.304	-1.825	11.88
73001	0.321	-2.210	11.90
73100	0.301	-1.390	11.92
73201	0.308	-1.820	11.92
73300	0.309	-1.765	11.96
73400	0.314	-1.445	11.98
73500	0.312	-2.190	11.98
73602	0.311	-1.805	12.00
73701	0.308	-1.485	12.02
73800	0.331	-1.810	12.02
73900	0.343	-1.215	12.06
74002	0.356	-1.255	12.06
74101	0.335	-1.865	12.08
74201	0.338	-1.490	12.10
74300	0.333	-1.920	12.10
74402	0.331	-1.900	12.14
74502	0.317	-1.190	12.16
74601	0.329	-1.615	12.16
74701	0.329	-1.575	12.18
74800	0.331	-1.625	12.20
74901	0.328	-1.945	12.20
75000	0.333	-1.295	12.24
75101	0.333	-1.675	12.26
75201	0.328	-1.970	12.26
75301	0.324	-1.325	12.28
75401	0.328	-1.710	12.30
75501	0.324	-1.690	12.30
75602	0.332	-1.430	12.34
75701	0.318	-1.745	12.36
75801	0.322	-1.720	12.36
75901	0.334	-1.455	12.38
76002	0.332	-1.785	12.38
76100	0.351	-1.735	12.42
76201	0.335	-1.780	12.44
76301	0.331	-2.015	12.44
76400	0.332	-1.470	12.46
76500	0.332	-2.125	12.48
76600	0.345	-1.780	12.48
76702	0.345	-1.815	12.52
76800	0.339	-2.175	12.54
76900	0.341	-1.805	12.54
77001	0.354	-1.845	12.56
77102	0.348	-2.110	12.58
77200	0.349	-1.505	12.58
77300	0.350	-1.885	12.62
77401	0.345	-1.855	12.64
77502	0.340	-1.830	12.64
77600	0.335	-2.190	12.66
77701	0.341	-1.865	12.68
77801	0.344	-1.615	12.68
77902	0.344	-1.895	12.72
78002	0.344	-1.870	12.72
78100	0.348	-1.900	12.74
78201	0.363	-2.195	12.76
78301	0.366	-1.605	12.76
78400	0.369	-1.915	12.80
78500	0.372	-1.865	12.82
78600	0.372	-1.885	12.82
78702	0.388	-1.865	12.84
78800	0.363	-1.735	12.86
78901	0.365	-1.400	12.86
79001	0.364	-2.000	12.90
79100	0.361	-1.705	12.92
79200	0.359	-1.765	12.92
79301	0.366	-2.060	12.94
79402	0.372	-1.760	12.96
79502	0.367	-1.800	12.96
79600	0.371	-2.085	13.00
79700	0.371	-1.430	13.00
79800	0.371	-2.055	13.02
79901	0.371	-1.745	13.04
80001	0.373	-1.470	13.04
80101	0.372	-1.825	13.08
80200	0.375	-1.535	13.10
80302	0.392	-1.475	13.10
80400	0.398	-2.120	13.12
80500	0.399	-1.490	13.14
80601	0.411	-1.870	13.14
80702	0.384	-2.230	13.18
80800	0.380	-1.490	13.20
80902	0.378	-1.515	13.20
81001	0.380	-1.775	13.22
81102	0.387	-1.785	13.24
81200	0.376	-2.230	13.24
81300	0.388	-1.545	13.28
81400	0.456	-1.860	13.30
81502	0.426	-2.095	13.30
81602	0.418	-1.795	13.32
81700	0.419	-1.860	13.32
81801	0.418	-2.245	13.36
81901	0.429	-1.600	13.38
82001	0.439	-1.900	13.38
82100	0.425	-1.855	13.40
82202	0.388	-1.600	13.42
82301	0.388	-2.275	13.46
82401	0.384	-1.860	13.46
82500	0.384	-1.585	13.48
82602	0.386	-1.925	13.50
82700	0.379	-1.540	13.50
82800	0.391	-1.905	13.52
82902	0.398	-2.285	13.56
83001	0.400	-1.560	13.56
83101	0.401	-1.915	13.58
83201	0.405	-2.325	13.60
83301	0.402	-1.490	13.60
83401	0.395	-1.950	13.62
83500	0.414	-1.590	13.66
83600	0.443	-1.575	13.66
83702	0.436	-1.810	13.68
83801	0.423	-1.730	13.70
83901	0.417	-1.795	13.70
84001	0.427	-2.060	13.74
84101	0.416	-1.320	13.76
84200	0.414	-2.170	13.76
84300	0.416	-1.755	13.78
84402	0.422	-1.430	13.80
84501	0.422	-1.855	13.80
84601	0.434	-1.815	13.84
84701	0.435	-1.510	13.86
84801	0.428	-2.270	13.86
84902	0.418	-1.860	13.88
85000	0.422	-1.920	13.90
85100	0.447	-1.880	13.90
85202	0.449	-1.875	13.94
85301	0.461	-1.580	13.96
85400	0.475	-1.890	13.96
85501	0.476	-1.525	13.98
85601	0.451	-2.300	13.98
85702	0.451	-1.915	14.02
85801	0.466	-1.590	14.04
85900	0.472	-2.155	14.04
86001	0.461	-1.600	14.06
86101	0.468	-1.905	14.08
86200	0.466	-1.875	14.08
86301	0.480	-1.510	14.12
86401	0.479	-1.665	14.14
86500	0.487	-1.910	14.14
86601	0.494	-1.565	14.16
86701	0.477	-2.285	14.18
86800	0.490	-1.925	14.18
86901	0.544	-1.645	14.22
87001	0.560	-2.305	14.24
87102	0.592	-1.945	14.24
87202	0.568	-1.985	14.26
87301	0.551	-2.295	14.26
87400	0.542	-1.620	14.30
87501	0.556	-2.005	14.32
87602	0.532	-2.315	14.32
87700	0.578	-1.995	14.34
87801	0.496	-2.285	14.36
87901	0.508	-1.965	14.36
88001	0.496	-1.675	14.40
88100	0.472	-2.275	14.42
88201	0.473	-1.725	14.42
88301	0.467	-1.645	14.44
88401	0.468	-2.175	14.46
88501	0.463	-1.590	14.46
88600	0.476	-2.280	14.50
88702	0.462	-2.185	14.52
88802	0.455	-1.600	14.52
88900	0.458	-2.285	14.54
89001	0.461	-1.910	14.56
89101	0.473	-1.675	14.56
89201	0.466	-2.315	14.60
89302	0.480	-1.945	14.62
89401	0.471	-1.615	14.62
89500	0.458	-2.200	14.64
89601	0.465	-1.615	14.64
89700	0.448	-2.330	14.68
89801	0.453	-1.985	14.70
89902	0.456	-1.655	14.70
90001	0.493	-2.360	14.72
90101	0.474	-1.905	14.74
90201	0.472	-1.625	14.74
90301	0.455	-2.270	14.78
90400	0.459	-1.560	14.80
90500	0.460	-1.970	14.80
90601	0.461	-2.275	14.82
90702	0.454	-1.895	14.84
90802	0.457	-1.905	14.84
90901	0.455	-2.195	14.88
91001	0.453	-1.605	14.90
91101	0.446	-2.295	14.90
91201	0.451	-1.925	14.92
91301	0.452	-1.655	14.96
91402	0.452	-2.230	14.96
91501	0.454	-1.940	14.98
91601	0.451	-2.005	15.00
91702	0.457	-2.375	15.00
91802	0.458	-1.975	15.02
91901	0.458	-2.025	15.06
92000	0.453	-1.980	15.06
92100	0.468	-2.035	15.08
92200	0.461	-2.380	15.10
92301	0.458	-2.015	15.10
92401	0.466	-1.690	15.12
92501	0.471	-2.380	15.16
92602	0.470	-1.985	15.16
92701	0.472	-2.025	15.18
92801	0.481	-2.445	15.20
92901	0.478	-1.565	15.20
93000	0.475	-2.385	15.22
93100	0.480	-2.015	15.26
93200	0.479	-1.755	15.26
93301	0.486	-2.415	15.28
93400	0.494	-2.030	15.30
93500	0.484	-1.640	15.30
93601	0.486	-2.495	15.34
93702	0.493	-2.030	15.36
93800	0.490	-2.105	15.36
93901	0.554	-2.450	15.38
94000	0.541	-1.415	15.40
94101	0.537	-1.930	15.40
94201	0.541	-2.290	15.44
94300	0.541	-1.540	15.46
94400	0.536	-2.400	15.46
94501	0.530	-1.895	15.48
94601	0.535	-1.560	15.50
94700	0.530	-2.265	15.50
94801	0.547	-1.930	15.54
94901	0.532	-1.610	15.54
95000	0.528	-1.970	15.56
95101	0.528	-1.675	15.58
95202	0.518	-2.035	15.58
95301	0.520	-1.995	15.62
95401	0.522	-1.735	15.64
95501	0.516	-2.390	15.64
95601	0.515	-2.025	15.66
95701	0.525	-1.645	15.68
95800	0.518	-2.345	15.68
95900	0.505	-1.595	15.72
96000	0.532	-1.695	15.74
96101	0.528	-2.480	15.74
96200	0.535	-1.710	15.76
96300	0.526	-2.470	15.78
96400	0.539	-2.065	15.78
96501	0.539	-1.725	15.82
96600	0.531	-2.560	15.84
96700	0.533	-1.690	15.84
96801	0.534	-1.875	15.86
96900	0.536	-2.510	15.90
97001	0.535	-2.095	15.90
97100	0.540	-2.455	15.92
97200	0.538	-2.090	15.94
97301	0.541	-2.085	15.94
97401	0.537	-2.150	15.96
97500	0.532	-2.110	16.00
97601	0.553	-1.755	16.00
97702	0.540	-2.100	16.02
97801	0.540	-2.080	16.04
97901	0.551	-1.690	16.04
98001	0.544	-2.515	16.06
98101	0.543	-2.070	16.10
98201	0.534	-1.745	16.10
98301	0.536	-2.440	16.12
98401	0.540	-1.705	16.12
98500	0.545	-2.405	16.14
98601	0.534	-2.430	16.16
98701	0.528	-1.760	16.16
98801	0.518	-2.500	16.20
98900	0.538	-1.850	16.22
99000	0.540	-2.145	16.22
99101	0.524	-2.540	16.24
99202	0.525	-2.120	16.28
99301	0.523	-1.845	16.28
99400	0.515	-2.400	16.30
99500	0.529	-1.835	16.30
99601	0.529	-2.200	16.32
99701	0.521	-2.150	16.34
99801	0.523	-1.740	16.34
99901	0.522	-1.775	16.38
100000	0.544	-1.730	16.40
100100	0.535	-1.660	16.42
100201	0.523	-2.450	16.42
100300	0.531	-1.690	16.44
100402	0.524	-2.105	16.48
100501	0.518	-2.440	16.48
100601	0.528	-1.805	16.50
100701	0.523	-2.170	16.52
100801	0.522	-2.125	16.52
100901	0.520	-1.740	16.56
101000	0.524	-2.515	16.58
101101	0.525	-2.115	16.58
101202	0.531	-1.805	16.60
101302	0.529	-2.445	16.62
101400	0.537	-1.840	16.62
101501	0.552	-2.185	16.66
101600	0.541	-2.170	16.68
101702	0.542	-2.155	16.68
101801	0.573	-2.220	16.70
101900	0.555	-2.100	16.72
102000	0.551	-2.015	16.72
102101	0.545	-2.400	16.76
102200	0.550	-1.760	16.76
102301	0.553	-2.075	16.78
102401	0.546	-2.385	16.80
102501	0.583	-1.735	16.80
102600	0.566	-1.990	16.84
102701	0.567	-2.220	16.86
102801	0.560	-1.570	16.86
102900	0.550	-1.975	16.88
103002	0.555	-2.290	16.90
103100	0.564	-1.685	16.90
103201	0.551	-2.020	16.94
103302	0.544	-2.240	16.96
103402	0.546	-1.615	16.96
103500	0.544	-2.415	16.98
103601	0.549	-2.005	17.00
103700	0.546	-2.090	17.00
103801	0.544	-2.380	17.04
103901	0.550	-1.715	17.04
104000	0.551	-2.490	17.06
104101	0.527	-2.070	17.08
104201	0.559	-1.725	17.08
104300	0.556	-2.430	17.10
104400	0.553	-1.700	17.14
104502	0.558	-1.745	17.14
104602	0.563	-2.455	17.16
104701	0.559	-2.075	17.18
104801	0.551	-2.145	17.18
104901	0.559	-2.560	17.22
105000	0.560	-1.690	17.22
105100	0.560	-2.515	17.24
105202	0.558	-2.590	17.26
105300	0.567	-1.780	17.26
105401	0.567	-2.155	17.28
105501	0.587	-2.130	17.32
105602	0.580	-1.725	17.32
105701	0.567	-2.605	17.34
105801	0.576	-2.135	17.36
105900	0.566	-1.960	17.36
106001	0.568	-2.555	17.38
106100	0.578	-1.735	17.42
106201	0.550	-2.220	17.42
106301	0.561	-2.525	17.44
106402	0.575	-1.780	17.46
106500	0.573	-2.660	17.46
106600	0.564	-1.830	17.50
106702	0.578	-1.765	17.52
106801	0.570	-2.645	17.52
106900	0.554	-1.770	17.54
107001	0.595	-1.925	17.56
107100	0.591	-2.100	17.56
107201	0.588	-1.845	17.60
107301	0.586	-1.855	17.62
107401	0.644	-2.145	17.62
107500	0.613	-1.995	17.64
107601	0.603	-2.255	17.66
107701	0.594	-1.940	17.66
107800	0.599	-2.015	17.70
107901	0.589	-2.420	17.72
108001	0.587	-1.990	17.72
108100	0.577	-2.075	17.74
108201	0.573	-2.360	17.76
108301	0.578	-1.695	17.76
108401	0.566	-2.120	17.80
108501	0.566	-2.090	17.80
108602	0.561	-1.700	17.82
108701	0.557	-2.170	17.84
108801	0.565	-2.115	17.84
108901	0.581	-1.815	17.88
109000	0.571	-2.615	17.90
109101	0.577	-1.860	17.90
109201	0.578	-2.230	17.92
109300	0.576	-2.425	17.94
109401	0.589	-1.850	17.94
109501	0.579	-2.250	17.98
109600	0.581	-2.190	18.00
109701	0.579	-1.795	18.00
109801	0.600	-2.275	18.02
109900	0.603	-1.905	18.04
110001	0.623	-2.265	18.04
110101	0.623	-2.635	18.08
110201	0.602	-2.230	18.08
110301	0.613	-2.295	18.10
110401	0.585	-2.515	18.12
110500	0.629	-1.920	18.12
110601	0.597	-2.300	18.16
110700	0.583	-2.260	18.18
110800	0.582	-2.070	18.18
110902	0.576	-2.335	18.20
111002	0.584	-2.295	18.22
111101	0.583	-2.070	18.22
111202	0.593	-2.320	18.26
111300	0.585	-1.945	18.28
111400	0.583	-2.595	18.28
111502	0.594	-2.665	18.30
111602	0.606	-2.270	18.32
111701	0.596	-2.295	18.32
111801	0.602	-2.535	18.36
111901	0.613	-1.910	18.38
112001	0.604	-2.340	18.38
112101	0.597	-2.295	18.40
112200	0.619	-2.340	18.40
112301	0.652	-2.660	18.44
112400	0.711	-2.005	18.46
112501	0.726	-2.350	18.46
112601	0.738	-2.370	18.48
112701	0.732	-1.950	18.50
112800	0.736	-2.680	18.50
112901	0.731	-2.540	18.54
113001	0.719	-1.975	18.56
113100	0.735	-2.690	18.56
113200	0.725	-1.900	18.58
113300	0.633	-2.310	18.60
113401	0.618	-2.525	18.60
113501	0.613	-1.880	18.64
113601	0.619	-2.250	18.66
113700	0.616	-2.240	18.66
113801	0.627	-1.905	18.68
113900	0.646	-2.610	18.70
114000	0.632	-2.110	18.70
114101	0.647	-1.890	18.74
114202	0.639	-2.100	18.76
114301	0.642	-2.055	18.76
114400	0.650	-2.125	18.78
114501	0.639	-2.490	18.78
114602	0.632	-2.105	18.82
114701	0.650	-2.165	18.84
114801	0.622	-2.495	18.84
114902	0.622	-1.825	18.86
115002	0.612	-2.225	18.88
115101	0.618	-2.460	18.88
115200	0.622	-1.995	18.92
115300	0.619	-2.660	18.94
115400	0.633	-1.880	18.94
115502	0.815	-1.875	18.96
115602	0.769	-2.615	18.98
115700	0.783	-1.870	18.98
115800	0.780	-2.600	19.02
115902	0.773	-2.700	19.04
116002	0.760	-2.045	19.04
116100	0.746	-2.610	19.06
116200	0.750	-2.300	19.10
116301	0.758	-1.940	19.10
116400	0.752	-2.380	19.12
116500	0.752	-2.035	19.14
116601	0.770	-1.960	19.14
116702	0.762	-2.635	19.16
116801	0.771	-2.335	19.20
116901	0.776	-2.125	19.20
117000	0.781	-2.360	19.22
117100	0.765	-1.980	19.24
117202	0.771	-2.400	19.24
117300	0.773	-2.360	19.26
117400	0.799	-2.125	19.30
117501	0.773	-2.825	19.30
117600	0.773	-2.365	19.32
117701	0.786	-1.940	19.34
117800	0.783	-2.675	19.34
117901	0.808	-1.915	19.38
118002	0.801	-2.050	19.40
118101	0.788	-2.775	19.40
118200	0.785	-1.960	19.42
118301	0.776	-2.700	19.44
118400	0.776	-2.340	19.44
118501	0.786	-2.035	19.48
118602	0.794	-2.430	19.50
118701	0.773	-2.620	19.50
118801	0.775	-1.980	19.52
118901	0.770	-2.855	19.54
119001	0.779	-2.370	19.54
119100	0.842	-2.450	19.58
119201	0.836	-2.880	19.60
119300	0.905	-2.035	19.60
119401	0.919	-1.785	19.62
119501	0.882	-2.585	19.64
119601	0.857	-1.720	19.64
119700	0.845	-2.675	19.68
119800	0.835	-1.810	19.68
119902	0.843	-1.775	19.70
120001	0.840	-2.715	19.72
120101	0.886	-2.235	19.72
120201	0.864	-2.305	19.76
120302	0.852	-2.770	19.78
120400	0.829	-1.850	19.78
120501	0.817	-2.360	19.80
120600	0.811	-2.280	19.82
120701	0.809	-2.005	19.82
120800	0.858	-2.785	19.86
120901	0.867	-2.260	19.88
121002	0.880	-1.905	19.88
121100	0.891	-2.650	19.90
121200	0.913	-1.935	19.92
121302	0.913	-2.035	19.92
121401	0.986	-2.595	19.96
121501	1.007	-1.975	19.98
121601	1.002	-2.415	19.98
121700	0.983	-2.340	20.00
121800	10.547	-2.125	20.04
121901	10.547	-2.740	20.04
122001	1.038	-2.355	20.06
122102	0.973	-2.015	20.08
122200	0.960	-2.700	20.08
122301	0.965	-2.095	20.10
122400	0.967	-2.670	20.14
122502	0.964	-2.790	20.14
122602	0.980	-2.125	20.16
122700	0.974	-2.760	20.18
122802	0.968	-2.810	20.18
122900	0.974	-2.110	20.20
123002	0.978	-2.665	20.24
123102	0.980	-2.805	20.24
123200	0.967	-2.415	20.26
123301	0.894	-1.985	20.28
123400	0.876	-1.975	20.28
123502	0.864	-2.420	20.30
123602	1.043	-2.830	20.30
123701	0.955	-2.060	20.34
123800	0.953	-2.810	20.36
123900	0.994	-2.395	20.36
124001	1.078	-2.040	20.38
124100	0.973	-2.825	20.42
124200	0.959	-2.400	20.42
124301	0.953	-2.210	20.44
124402	0.970	-2.830	20.46
124500	1.084	-2.060	20.48
124602	0.959	-2.235	20.48
124701	10.547	-2.760	20.52
124800	10.547	-2.120	20.54
124900	10.547	-2.860	20.54
125000	10.547	-2.225	20.56
125102	10.547	-2.100	20.58
125200	10.547	-2.920	20.58
125300	10.547	-2.105	20.62
125400	10.547	-2.520	20.62
125502	10.547	-2.520	20.64
125600	10.547	-2.125	20.66
125700	10.547	-2.795	20.66
125801	10.547	-2.890	20.70
125900	10.547	-2.155	20.72
126000	10.547	-2.905	20.72
126100	10.547	-2.505	20.74
126201	10.547	-2.260	20.76
126301	10.547	-2.905	20.76
126400	10.547	-2.235	20.80
126501	10.547	-2.570	20.82
126602	10.547	-2.875	20.82
126701	10.547	-2.515	20.84
126800	10.547	-2.585	20.86
126901	10.547	-2.880	20.86
127001	10.547	-2.160	20.90
127101	10.547	-2.570	20.92
127201	10.547	-2.805	20.92
127302	10.547	-2.120	20.94
127401	10.547	-2.860	20.94
127500	10.547	-2.190	20.98
127600	10.547	-2.515	21.00
127701	10.547	-2.895	21.00
127800	10.547	-2.115	21.02
127900	10.547	-2.840	21.04
128001	10.547	-2.905	21.04
128102	10.547	-2.265	21.08
128201	10.547	-2.585	21.10
128300	10.547	-2.535	21.10
128402	10.547	-2.255	21.12
128501	10.547	-2.350	21.14
128601	10.547	-2.210	21.14
128701	10.547	-1.825	21.18
128802	10.547	-2.645	21.20
128901	10.547	-1.925	21.20
129000	10.547	-2.340	21.22
129101	10.547	-2.345	21.24
129201	10.547	-1.920	21.24
129302	10.547	-2.140	21.28
129400	10.547	-2.335	21.28
129500	10.547	-2.400	21.30
129600	10.547	-2.895	21.32
129700	10.547	-2.375	21.32
129801	10.547	-2.035	21.36
129900	10.547	-2.865	21.38
130001	10.547	-2.430	21.38
130100	10.547	-2.510	21.40
130200	10.547	-2.735	21.42
130302	10.547	-2.470	21.42
130400	10.547	-2.900	21.46
130501	10.547	-2.955	21.48
130601	10.547	-2.055	21.48
130700	10.547	-3.005	21.50
130801	10.547	-2.530	21.52
130900	10.547	-2.575	21.52
131001	10.547	-2.980	21.56
131100	10.547	-2.080	21.58
131202	10.547	-2.225	21.58
131301	10.547	-3.035	21.60
131401	10.547	-2.165	21.64
131502	10.547	-2.615	21.64
131600	10.547	-2.565	21.66
131700	10.547	-2.625	21.68
131800	10.547	-3.080	21.68
131902	10.547	-2.600	21.70
132001	10.547	-2.160	21.74
132100	10.547	-2.925	21.74
132201	10.547	-2.235	21.76
132302	10.547	-2.155	21.78
132401	10.547	-2.955	21.78
132500	10.547	-2.115	21.80
132600	10.547	-3.040	21.84
132701	10.547	-2.560	21.84
132800	10.547	-2.605	21.86
132901	10.547	-3.005	21.88
133002	10.547	-2.595	21.88
133102	10.547	-2.130	21.92
133201	10.547	-2.970	21.94
133300	10.547	-2.125	21.94
133400	10.547	-2.585	21.96
133502	10.547	-2.925	21.98
133601	10.547	-2.045	21.98
133701	10.547	-2.520	22.02
133800	10.547	-2.450	22.02
133900	10.547	-2.125	22.04
134000	10.547	-2.950	22.06
134101	10.547	-2.500	22.06
134201	10.547	-2.175	22.08
134301	10.547	-2.970	22.12
134401	10.547	-2.250	22.12
134502	10.547	-2.360	22.14
134601	10.547	-3.000	22.16
134702	10.547	-2.310	22.16
134800	10.547	-2.945	22.18
134901	10.547	-2.600	22.22
135001	10.547	-2.225	22.22
135101	10.547	-2.670	22.24
135201	10.547	-2.615	22.24
135301	10.547	-2.285	22.26
135401	10.547	-2.965	22.30
135502	10.547	-2.575	22.30
135601	10.547	-2.645	22.32
135701	10.547	-3.045	22.34
135801	10.547	-2.295	22.34
135901	10.547	-2.630	22.36
136000	10.547	-2.570	22.40
136101	10.547	-2.185	22.40
136201	10.547	-2.975	22.42
136301	10.547	-2.605	22.44
136401	10.547	-2.260	22.46
136501	10.547	-3.025	22.46
136600	10.547	-2.230	22.50
136702	10.547	-2.675	22.52
136802	10.547	-3.075	22.52
136901	10.547	-2.280	22.54
137001	10.547	-2.705	22.54
137102	10.547	-2.915	22.58
137201	10.547	-2.190	22.60
137301	10.547	-2.955	22.60
137401	10.547	-2.595	22.62
137501	10.547	-2.645	22.64
137601	10.547	-3.010	22.64
137701	10.547	-2.615	22.68
137802	10.547	-2.410	22.70
137902	10.547	-3.065	22.70
138000	10.547	-2.290	22.72
138100	10.547	-3.060	22.74
138201	10.547	-2.910	22.74
138301	10.547	-2.175	22.78
138401	10.547	-2.450	22.80
138501	10.547	-2.390	22.80
138602	10.547	-2.040	22.82
138700	10.547	-2.745	22.82
138800	10.547	-2.075	22.84
138902	10.547	-2.225	22.88
139001	10.547	-2.920	22.88
139102	10.547	-2.185	22.90
139201	10.547	-2.575	22.92
139301	10.547	-2.545	22.92
139402	10.547	-2.130	22.96
139500	10.547	-2.925	22.98
139600	10.547	-2.130	22.98
139702	10.547	-2.115	23.00
139800	10.547	-2.955	23.02
139900	10.547	-2.120	23.02
140001	10.547	-2.570	23.06
140100	10.547	-2.865	23.08
140201	10.547	-2.510	23.08
140300	10.547	-2.875	23.10
140401	10.547	-2.725	23.12
140501	10.547	-2.275	23.12
140600	10.547	-3.030	23.16
140701	10.547	-2.540	23.16
140801	10.547	-2.605	23.18
140902	10.547	-2.940	23.20
141001	10.547	-2.560	23.20
141101	10.547	-2.325	23.24
141201	10.547	-3.095	23.26
141301	10.547	-2.135	23.26
141400	10.547	-2.945	23.28
141500	10.547	-2.605	23.30
141601	10.547	-2.230	23.30
141702	10.547	-2.680	23.34
141801	10.547	-2.965	23.36
141901	10.547	-2.285	23.36
142000	10.547	-3.060	23.38
142101	10.547	-2.655	23.40
142200	10.547	-2.690	23.40
142301	10.547	-3.135	23.44
142402	10.547	-2.625	23.46
142501	10.547	-2.675	23.46
142601	10.547	-3.125	23.48
142701	10.547	-2.205	23.48
142802	10.547	-2.730	23.52
142901	10.547	-3.105	23.54
143001	10.547	-2.310	23.54
143102	10.547	-2.760	23.56
143201	10.547	-2.395	23.58
143301	10.547	-2.475	23.58
143400	10.547	-2.715	23.62
143501	10.547	-2.330	23.64
143600	10.547	-3.125	23.64
143701	10.547	-3.145	23.66
143800	10.547	-2.465	23.68
143901	10.547	-3.115	23.68
144001	10.547	-2.710	23.72
144101	10.547	-2.410	23.74
144200	10.547	-3.025	23.74
144301	10.547	-2.325	23.76
144402	10.547	-2.530	23.78
144501	10.547	-3.175	23.78
144600	10.547	-2.435	23.82
144701	1.121	-2.695	23.84
144800	1.124	-2.635	23.84
144901	1.103	-2.260	23.86
145001	1.095	-3.095	23.90
145102	1.094	-2.705	23.90
145201	1.089	-2.385	23.92
145301	1.116	-3.135	23.94
145400	1.117	-2.315	23.94
145501	1.075	-2.790	23.96
145601	1.089	-3.165	24.00
145700	1.106	-2.415	24.00
145800	1.096	-3.185	24.02
145901	1.088	-3.070	24.04
146002	1.083	-2.395	24.04
146100	1.086	-3.225	24.06
146201	1.083	-2.735	24.10
146302	1.097	-2.365	24.10
146400	1.115	-3.160	24.12
146500	1.114	-2.325	24.14
146600	1.109	-2.815	24.14
146701	1.125	-3.140	24.18
146800	1.124	-2.365	24.20
146901	1.350	-2.830	24.20
147000	1.344	-2.740	24.22
147101	1.107	-2.430	24.22
147200	1.102	-3.210	24.24
147300	1.088	-2.480	24.28
147400	1.088	-2.835	24.28
147501	1.067	-3.195	24.30
147600	1.107	-2.440	24.32
147701	1.090	-2.825	24.32
147801	1.092	-3.145	24.34
147900	1.087	-2.350	24.38
148000	1.118	-3.245	24.38
148100	10.547	-2.785	24.40
148201	10.547	-2.405	24.42
148301	10.547	-3.270	24.42
148401	10.547	-2.810	24.46
148501	10.547	-2.565	24.48
148601	10.547	-3.245	24.48
148701	10.547	-2.820	24.50
148801	10.547	-2.485	24.52
148901	10.547	-2.720	24.52
149001	10.547	-2.170	24.56
149101	10.547	-2.545	24.58
149201	10.547	-2.515	24.58
149301	10.547	-2.135	24.60
149401	10.547	-2.900	24.62
149501	10.547	-2.565	24.62
149600	10.547	-2.630	24.66
149701	10.547	-2.990	24.68
149800	10.547	-2.200	24.68
149900	10.547	-2.980	24.70
150002	10.547	-3.070	24.72
150102	10.547	-2.645	24.72
150201	10.547	-2.725	24.76
150300	10.547	-2.970	24.76
150401	10.547	-2.325	24.78
150500	10.547	-3.170	24.80
150600	10.547	-2.715	24.80
150700	10.547	-2.795	24.84
150801	10.547	-3.175	24.86
150901	10.547	-2.485	24.86
151000	10.547	-2.825	24.88
151100	10.547	-3.100	24.90
151201	10.547	-2.395	24.90
151300	10.547	-3.250	24.94
151402	10.547	-3.255	24.96
151500	10.547	-2.360	24.96
151601	10.547	-3.215	24.98
151702	10.547	-2.830	25.00
151801	10.547	-2.415	25.00
151901	10.547	-3.195	25.04
152000	10.547	-2.380	25.06
152101	10.547	-2.905	25.06
152201	10.547	-3.335	25.08
152300	10.547	-2.395	25.08
152401	10.547	-3.175	25.12
152501	10.547	-3.140	25.14
152601	10.547	-2.380	25.14
152701	10.547	-3.285	25.16
152802	10.547	-2.845	25.18
152901	10.547	-2.430	25.18
153001	10.547	-3.365	25.22
153102	10.547	-3.115	25.24
153201	10.547	-2.915	25.24
153301	10.547	-3.385	25.26
153401	10.547	-2.635	25.28
153501	10.547	-2.955	25.28
153601	10.547	-3.290	25.32
153701	10.547	-2.425	25.34
153801	10.547	-3.310	25.34
153901	10.547	-2.890	25.36
154001	10.547	-2.645	25.38
154101	10.547	-2.975	25.38
154201	10.547	-2.645	25.42
154301	10.547	-2.970	25.42
154401	10.547	-3.460	25.44
154501	10.547	-2.915	25.46
154600	10.547	-3.440	25.50
154701	10.547	-3.280	25.50
154801	10.547	-2.540	25.52
154900	10.547	-3.425	25.54
155001	10.547	-2.955	25.54
155102	10.547	-2.540	25.56
155201	10.547	-3.275	25.60
155301	10.547	-2.680	25.60
155401	10.547	-2.990	25.62
155502	10.547	-3.370	25.64
155601	10.547	-2.595	25.64
155701	10.547	-2.770	25.66
155802	10.547	-3.435	25.70
155901	10.547	-2.570	25.70
156001	10.547	-3.035	25.72
156101	10.547	-2.865	25.74
156202	10.547	-2.460	25.74
156301	10.547	-2.960	25.78
156401	10.547	-3.230	25.80
156501	10.547	-2.970	25.80
156602	10.547	-3.335	25.82
156700	10.547	-2.500	25.84
156800	10.547	-3.365	25.84
156900	10.547	-2.965	25.88
157001	10.547	-2.595	25.90
157100	10.547	-3.480	25.90
157200	10.547	-2.960	25.92
157302	10.547	-2.480	25.94
157401	10.547	-3.280	25.94
157501	10.547	-3.350	25.98
157600	10.547	-2.990	26.00
157701	10.547	-3.220	26.00
157802	10.547	-2.945	26.02
157901	10.547	-3.255	26.02
158002	10.547	-3.385	26.06
158100	10.547	-2.760	26.08
158201	10.547	-3.345	26.08
158302	10.547	-3.300	26.10
158401	10.547	-2.615	26.12
158500	10.547	-3.320	26.12
158601	10.547	-2.600	26.16
158702	10.547	-2.740	26.18
158801	10.547	-3.475	26.18
158901	10.547	-2.585	26.20
159000	10.547	-3.455	26.22
159102	10.547	-3.365	26.22
159201	10.547	-2.630	26.26
159301	10.547	-3.060	26.28
159401	10.547	-2.995	26.28
159501	10.547	-2.595	26.30
159601	10.547	-3.415	26.32
159700	10.547	-2.570	26.32
159801	10.547	-2.955	26.36
159901	10.547	-3.375	26.36
160001	10.547	-2.645	26.38
160100	10.547	-3.445	26.40
160202	10.547	-3.450	26.40
160300	10.547	-2.650	26.44
160401	10.547	-3.285	26.46
160501	10.547	-2.990	26.46
160602	10.547	-2.585	26.48
160701	10.547	-3.495	26.50
160801	10.547	-2.770	26.50
160902	10.547	-2.675	26.54
161000	10.547	-3.405	26.56
161101	10.547	-2.620	26.56
161200	10.547	-3.430	26.58
161300	10.547	-3.015	26.60
161401	10.547	-2.690	26.60
161502	10.547	-3.095	26.64
161601	10.547	-3.030	26.66
161700	10.547	-3.090	26.66
161801	10.547	-3.490	26.68
161902	10.547	-3.035	26.68
162000	10.547	-3.090	26.72
162100	10.547	-3.050	26.74
162201	10.547	-2.615	26.74
162301	10.547	-3.335	26.76
162400	10.547	-3.050	26.78
162501	10.547	-2.650	26.78
162601	10.547	-3.475	26.82
162701	10.547	-3.330	26.84
162800	10.547	-3.070	26.84
162902	10.547	-2.950	26.86
163000	10.547	-2.460	26.88
163101	10.547	-2.940	26.88
163201	10.547	-3.305	26.92
163301	10.547	-2.600	26.94
163400	10.547	-3.370	26.94
163501	10.547	-2.970	26.96
163601	10.547	-2.580	26.96
163700	10.547	-3.450	27.00
163800	10.547	-2.960	27.02
163900	10.547	-3.000	27.02
164001	10.547	-3.425	27.04
164101	10.547	-2.950	27.06
164201	10.547	-3.015	27.06
164300	10.547	-3.000	27.10
164402	10.547	-3.295	27.12
164501	10.547	-3.045	27.12
164600	10.547	-2.995	27.14
164702	10.547	-2.995	27.16
164802	10.547	-3.075	27.16
164901	10.547	-3.025	27.20
165001	10.547	-2.665	27.22
165102	10.547	-3.385	27.22
165201	10.547	-2.730	27.24
165301	10.547	-2.790	27.26
165400	10.547	-3.345	27.26
165501	10.547	-2.665	27.30
165600	10.547	-3.435	27.30
165700	10.547	-3.085	27.32
165800	10.547	-2.620	27.34
165902	10.547	-3.160	27.34
166002	10.547	-3.530	27.38
166101	10.547	-2.720	27.40
166200	10.547	-3.505	27.40
166301	10.547	-2.810	27.42
166401	10.547	-2.735	27.44
166501	10.547	-3.540	27.48
166600	10.547	-2.720	27.48
166701	10.547	-3.200	27.50
166800	10.547	-3.425	27.52
166901	10.547	-2.230	27.52
167001	10.547	-3.230	27.54
167101	10.547	-2.775	27.58
167201	10.547	-2.450	27.58
167300	10.547	-3.190	27.60
167401	10.547	-2.855	27.62
167501	10.547	-2.945	27.62
167601	10.547	-3.390	27.66
167701	10.547	-2.600	27.68
167801	10.547	-2.980	27.68
167901	10.547	-3.240	27.70
168001	10.547	-2.510	27.72
168101	10.547	-3.000	27.72
168200	10.547	-2.635	27.76
168301	10.547	-2.735	27.78
168402	10.547	-3.325	27.78
168501	10.547	-2.995	27.80
168600	10.547	-3.080	27.82
168702	10.547	-3.530	27.82
168801	10.547	-2.695	27.86
168900	10.547	-3.495	27.88
169001	10.547	-3.440	27.88
169102	10.547	-2.705	27.90
169200	10.547	-3.340	27.92
169301	10.547	-2.880	27.92
169401	10.547	-2.915	27.96
169501	10.547	-3.405	27.96
169601	10.547	-2.950	27.98
169701	10.547	-3.020	28.00
169800	10.547	-3.235	28.00
169900	10.547	-2.565	28.04
170000	10.547	-3.520	28.06
170100	10.547	-3.015	28.06
170201	10.547	-2.700	28.08
170301	10.547	-3.460	28.10
170401	10.547	-3.055	28.10
170501	10.547	-3.115	28.14
170601	10.547	-3.495	28.16
170701	10.547	-3.040	28.16
170801	10.547	-3.115	28.18
170902	10.547	-3.540	28.20
171002	10.547	-3.085	28.20
171101	10.547	-3.160	28.24
171202	10.547	-3.510	28.24
171300	10.547	-2.820	28.26
171400	10.547	-3.510	28.28
171501	10.547	-3.050	28.28
171601	10.547	-3.110	28.32
171701	10.547	-3.510	28.34
171802	10.547	-3.090	28.34
171901	10.547	-2.890	28.36
172001	10.547	-3.610	28.38
172101	10.547	-2.675	28.38
172201	10.547	-3.185	28.42
172301	10.547	-3.520	28.44
172401	10.547	-2.680	28.44
172500	10.547	-3.610	28.46
172602	10.547	-3.160	28.48
172701	10.547	-3.465	28.48
172800	10.547	-3.545	28.52
172902	10.547	-3.175	28.54
173001	10.547	-3.200	28.54
173100	10.547	-3.160	28.56
173202	10.547	-3.155	28.56
173302	10.547	-3.230	28.60
173400	10.547	-3.180	28.62
173500	10.547	-2.990	28.62
173601	10.547	-3.675	28.64
173701	10.547	-3.195	28.66
173801	10.547	-2.810	28.66
173900	10.547	-3.555	28.70
174002	10.547	-3.215	28.72
174101	10.547	-2.930	28.72
174201	10.547	-3.535	28.74
174301	10.547	-2.765	28.76
174401	10.547	-3.590	28.76
174500	10.547	-3.210	28.80
174600	10.547	-2.965	28.82
174702	10.547	-3.270	28.82
174802	10.547	-3.570	28.84
174901	10.547	-2.880	28.86
175000	10.547	-3.510	28.86
175102	10.547	-3.250	28.90
175200	10.547	-3.300	28.90
175300	10.547	-3.275	28.92
175401	10.547	-2.700	28.94
175501	10.547	-3.370	28.94
175600	10.547	-3.025	28.98
175701	10.547	-2.645	29.00
175800	10.547	-3.525	29.00
175901	10.547	-3.080	29.02
176000	10.547	-3.150	29.04
176101	10.547	-3.425	29.04
176202	10.547	-3.145	29.08
176301	10.547	-3.225	29.10
176400	10.547	-3.505	29.10
176500	10.547	-2.800	29.12
176602	10.547	-2.935	29.14
176700	10.547	-3.215	29.14
176800	10.547	-3.010	29.18
176900	10.547	-3.590	29.20
177002	10.547	-3.550	29.20
177101	10.547	-2.845	29.22
177201	10.547	-3.605	29.26
177300	10.547	-2.900	29.26
177401	10.547	-3.245	29.28
177502	10.547	-3.720	29.30
177602	10.547	-3.555	29.30
177700	10.547	-3.300	29.32
177802	10.547	-3.740	29.36
177901	10.547	-2.785	29.36
178001	10.547	-3.645	29.38
178101	10.547	-3.230	29.40
178200	10.547	-3.295	29.42
178300	10.547	-3.680	29.42
178402	10.547	-3.205	29.46
178501	10.547	-2.810	29.48
178600	10.547	-3.630	29.48
178702	10.547	-3.205	29.50
178801	10.547	-3.295	29.50
178900	10.547	-3.255	29.54
179000	10.547	-2.995	29.56
179100	10.547	-3.770	29.56
179202	10.547	-3.525	29.58
179300	10.547	-3.310	29.60
179401	10.547	-3.650	29.60
179501	10.547	-3.615	29.64
179600	10.547	-3.345	29.66
179701	10.547	-3.745	29.66
179800	10.547	-2.860	29.68
179900	10.547	-3.770	29.70
180000	10.547	-3.285	29.70
180101	10.547	-2.900	29.74
180201	10.547	-3.715	29.76
180301	10.547	-3.310	29.76
180400	10.547	-3.365	29.78
180501	10.547	-3.785	29.80
180601	10.547	-3.325	29.80
180700	10.547	-3.410	29.84
180801	10.547	-3.830	29.84
180901	10.547	-2.950	29.86
181001	10.547	-3.415	29.88
181101	10.547	-3.865	29.88
181201	10.547	-3.365	29.88
181302	10.547	-3.360	29.88
181401	10.547	-3.345	29.88
181501	10.547	-3.335	29.88
