Time(ms)	Voltage(V)	Force(N)	Distance(mm)
100	0.032	0.005	0.00
200	0.032	0.005	0.00
301	0.033	0.005	0.00
400	0.034	0.000	0.00
500	0.033	0.000	0.00
602	0.032	0.000	0.00
700	0.034	0.000	0.00
800	0.031	0.000	0.00
902	0.032	0.000	0.00
1001	0.034	0.000	0.00
1101	0.033	0.000	0.00
1200	0.033	0.000	0.00
1302	0.034	0.020	0.02
1401	0.031	-0.325	0.02
1501	0.034	0.025	0.04
1602	0.036	-0.010	0.06
1701	0.041	-0.265	0.06
1800	0.038	-0.020	0.10
1902	0.040	-0.045	0.12
2001	0.039	-0.010	0.12
2101	0.043	0.235	0.14
2201	0.053	-0.310	0.16
2302	0.072	-0.030	0.16
2401	0.050	-0.045	0.20
2501	0.049	-0.295	0.22
2601	0.047	-0.050	0.22
2702	0.050	-0.075	0.24
2801	0.050	-0.335	0.26
2903	0.047	-0.090	0.26
3001	0.045	-0.115	0.30
3101	0.046	-0.105	0.30
3201	0.042	0.110	0.32
3301	0.039	-0.155	0.34
3401	0.042	-0.390	0.34
3501	0.042	0.110	0.38
3601	0.041	-0.195	0.40
3701	0.040	-0.160	0.42
3801	0.040	-0.215	0.42
3901	0.040	-0.485	0.44
4000	0.042	-0.220	0.48
4102	0.040	-0.260	0.48
4202	0.038	-0.260	0.50
4300	0.037	-0.280	0.52
4400	0.019	-0.320	0.52
4501	0.039	-0.300	0.54
4602	0.037	-0.085	0.58
4701	0.038	-0.365	0.58
4800	0.038	-0.330	0.60
4901	0.038	-0.355	0.62
5001	0.038	-0.375	0.62
5101	0.038	-0.350	0.66
5201	0.038	-0.390	0.68
5301	0.038	-0.385	0.68
5401	0.037	-0.395	0.70
5501	0.037	-0.420	0.72
5601	0.037	-0.435	0.72
5701	0.037	-0.425	0.76
5801	0.031	-0.455	0.76
5900	0.038	-0.430	0.78
6001	0.037	-0.475	0.80
6101	0.040	-0.490	0.80
6201	0.038	-0.455	0.82
6300	0.039	-0.490	0.82
6400	0.033	-0.490	0.86
6502	0.040	-0.490	0.88
6600	0.040	-0.770	0.88
6701	0.040	-0.790	0.90
6800	0.046	-0.550	0.92
6901	0.042	-0.575	0.92
7001	0.034	-0.550	0.96
7100	0.039	-0.595	0.98
7201	0.039	-0.620	1.00
7300	0.039	-0.380	1.00
7401	0.040	-0.640	1.04
7501	0.040	-0.655	1.04
7601	0.041	-0.640	1.06
7702	0.040	-0.685	1.08
7802	0.040	-0.675	1.08
7900	0.040	-0.685	1.10
8000	0.041	-0.695	1.14
8102	0.039	-0.690	1.14
8201	0.039	-0.730	1.16
8301	0.042	-0.990	1.18
8401	0.038	-0.715	1.18
8502	0.039	-0.760	1.20
8602	0.037	-1.025	1.24
8701	0.038	-0.500	1.24
8800	0.039	-1.015	1.26
8901	0.040	-0.765	1.26
9002	0.041	-0.530	1.28
9100	0.040	-0.740	1.32
9200	0.042	-0.435	1.34
9302	0.040	-0.485	1.34
9401	0.040	-0.945	1.36
9500	0.039	-0.365	1.36
9601	0.045	-0.675	1.38
9701	0.040	-0.660	1.42
9800	0.040	-0.435	1.44
9900	0.044	-0.980	1.44
10001	0.041	-0.730	1.46
10102	0.040	-0.475	1.48
10201	0.039	-0.795	1.48
10300	0.041	-0.505	1.52
10402	0.043	-0.520	1.54
10502	0.039	-0.760	1.54
10602	0.040	-0.745	1.56
10700	0.040	-0.805	1.56
10801	0.042	-0.790	1.60
10902	0.041	-0.760	1.62
11000	0.043	-1.070	1.62
11101	0.041	-0.800	1.64
11201	0.042	-0.550	1.66
11302	0.039	-0.840	1.66
11401	0.041	-0.810	1.70
11501	0.041	-0.835	1.72
11601	0.042	-0.865	1.72
11700	0.042	-0.575	1.74
11801	0.042	-0.870	1.76
11901	0.042	-0.820	1.76
12002	0.043	-0.820	1.80
12100	0.042	-0.875	1.82
12200	0.041	-0.845	1.82
12301	0.042	-0.870	1.84
12400	0.042	-1.160	1.86
12501	0.045	-0.860	1.86
12601	0.044	-0.750	1.90
12701	0.044	-0.965	1.92
12801	0.045	-0.705	1.92
12901	0.042	-0.770	1.94
13001	0.043	-0.775	1.98
13101	0.044	-0.485	1.98
13202	0.043	-0.835	2.00
13300	0.043	-0.805	2.02
13400	0.046	-0.850	2.02
13502	0.041	-0.860	2.04
13600	0.043	-0.825	2.08
13701	0.043	-0.490	2.08
13800	0.043	-1.000	2.10
13901	0.043	-0.735	2.10
14000	0.044	-0.810	2.12
14100	0.044	-0.780	2.14
14202	0.045	-0.785	2.14
14301	0.045	-0.845	2.18
14401	0.047	-0.825	2.20
14502	0.046	-0.570	2.20
14602	0.047	-0.880	2.22
14702	0.048	-1.095	2.26
14801	0.047	-0.870	2.26
14901	0.047	-1.170	2.28
15001	0.046	-0.865	2.30
15100	0.047	-0.925	2.30
15200	0.047	-1.175	2.32
15302	0.048	-0.895	2.36
15402	0.043	-0.905	2.36
15500	0.047	-0.885	2.38
15601	0.049	-0.635	2.40
15702	0.048	-0.940	2.40
15800	0.049	-0.905	2.42
15900	0.049	-0.950	2.46
16002	0.048	-0.965	2.46
16101	0.049	-0.930	2.48
16200	0.049	-0.985	2.50
16301	0.050	-1.235	2.52
16401	0.043	-0.730	2.52
16501	0.050	-1.005	2.56
16601	0.050	-0.975	2.56
16701	0.050	-0.755	2.58
16801	0.050	-1.015	2.60
16900	0.050	-0.980	2.60
17001	0.052	-1.015	2.64
17102	0.046	-1.025	2.66
17200	0.052	-0.995	2.66
17301	0.054	-1.045	2.68
17401	0.053	-1.030	2.70
17501	0.054	-1.015	2.70
17601	0.055	-1.055	2.74
17700	0.054	-0.980	2.76
17800	0.054	-1.030	2.76
17901	0.054	-1.050	2.78
18002	0.058	-1.030	2.78
18102	0.055	-0.670	2.80
18201	0.058	-1.140	2.84
18301	0.056	-0.650	2.84
18401	0.057	-0.945	2.86
18500	0.056	-0.935	2.88
18600	0.055	-0.970	2.88
18702	0.056	-1.000	2.92
18802	0.056	-1.005	2.94
18900	0.049	-1.015	2.94
19000	0.055	-1.285	2.96
19101	0.057	-1.015	2.98
19201	0.056	-1.055	2.98
19300	0.056	-1.315	3.02
19402	0.056	-1.030	3.04
19502	0.057	-1.065	3.04
19600	0.059	-1.050	3.06
19701	0.059	-0.660	3.06
19802	0.056	-0.955	3.08
19901	0.059	-0.960	3.12
20000	0.058	-0.990	3.12
20101	0.058	-1.025	3.14
20201	0.058	-1.000	3.16
20300	0.058	-1.060	3.16
20400	0.057	-1.050	3.20
20501	0.059	-0.820	3.22
20601	0.058	-1.100	3.22
20700	0.060	-1.065	3.24
20801	0.057	-0.830	3.26
20901	0.059	-1.120	3.26
21002	0.064	-1.095	3.30
21101	0.061	-0.805	3.32
21200	0.062	-1.090	3.32
21301	0.061	-0.810	3.34
21400	0.061	-0.885	3.36
21501	0.061	-1.195	3.36
21602	0.061	-0.875	3.40
21702	0.061	-0.925	3.42
21800	0.061	-1.225	3.42
21900	0.062	-0.645	3.44
22001	0.061	-0.980	3.46
22101	0.057	-0.950	3.46
22202	0.063	-0.625	3.50
22300	0.063	-1.205	3.50
22402	0.056	-0.910	3.52
22502	0.062	-0.650	3.54
22601	0.063	-1.270	3.54
22701	0.063	-0.935	3.58
22801	0.063	-1.005	3.60
22901	0.062	-0.995	3.60
23000	0.060	-0.675	3.62
23100	0.064	-1.360	3.64
23201	0.061	-1.015	3.64
23301	0.060	-0.735	3.68
23400	0.061	-1.350	3.70
23501	0.060	-1.015	3.70
23601	0.059	-1.070	3.72
23700	0.061	-1.330	3.74
23800	0.061	-0.780	3.74
23901	0.061	-1.105	3.78
24000	0.060	-1.090	3.80
24100	0.062	-0.850	3.80
24201	0.061	-1.135	3.82
24301	0.058	-1.095	3.86
24401	0.061	-0.810	3.86
24501	0.060	-1.150	3.88
24600	0.061	-0.870	3.90
24701	0.056	-1.150	3.90
24800	0.059	-1.435	3.92
24900	0.061	-0.855	3.96
25001	0.069	-1.180	3.96
25101	0.065	-1.100	3.98
25201	0.066	-0.695	4.00
25301	0.062	-1.000	4.00
25401	0.064	-0.980	4.02
25501	0.064	-0.695	4.06
25600	0.063	-1.335	4.06
25702	0.063	-1.385	4.08
25800	0.063	-1.090	4.10
25901	0.062	-1.400	4.10
26001	0.065	-1.070	4.14
26101	0.063	-1.135	4.14
26202	0.063	-1.145	4.16
26301	0.063	-0.870	4.18
26400	0.062	-1.420	4.18
26500	0.064	-1.115	4.20
26600	0.065	-1.085	4.24
26701	0.064	-1.360	4.24
26800	0.062	-1.085	4.26
26901	0.064	-1.130	4.28
27002	0.063	-1.380	4.28
27102	0.063	-1.170	4.30
27200	0.063	-1.405	4.34
27302	0.065	-1.345	4.34
27402	0.067	-0.755	4.36
27501	0.065	-1.035	4.38
27600	0.069	-1.010	4.38
27701	0.063	-1.050	4.40
27801	0.067	-1.360	4.44
27900	0.067	-1.050	4.44
28002	0.067	-0.850	4.46
28102	0.067	-1.405	4.48
28201	0.065	-0.800	4.48
28300	0.066	-1.340	4.52
28402	0.066	-1.390	4.54
28502	0.067	-0.815	4.54
28602	0.067	-1.150	4.56
28700	0.066	-1.110	4.58
28801	0.065	-0.850	4.58
28901	0.069	-1.340	4.62
29000	0.067	-1.070	4.64
29102	0.068	-0.840	4.64
29201	0.066	-1.365	4.66
29300	0.068	-1.075	4.68
29401	0.068	-1.135	4.68
29502	0.069	-1.420	4.72
29602	0.068	-1.115	4.74
29701	0.069	-1.170	4.74
29800	0.069	-1.110	4.76
29901	0.063	-1.145	4.76
30001	0.068	-1.165	4.80
30102	0.071	-1.145	4.82
30201	0.069	-1.175	4.82
30302	0.067	-1.195	4.84
30401	0.067	-1.170	4.86
30500	0.067	-1.210	4.86
30600	0.063	-1.175	4.90
30701	0.062	-1.190	4.90
30801	0.066	-1.445	4.92
30901	0.068	-1.200	4.94
31002	0.067	-1.190	4.96
31102	0.067	-1.240	4.96
31200	0.069	-1.100	5.00
31300	0.069	-1.145	5.02
31402	0.067	-1.405	5.02
31502	0.069	-1.140	5.04
31601	0.068	-1.185	5.04
31700	0.069	-1.175	5.06
31801	0.062	-1.200	5.10
31900	0.073	-1.415	5.10
32000	0.067	-1.140	5.12
32101	0.068	-0.925	5.14
32201	0.060	-1.505	5.14
32302	0.075	-1.180	5.18
32400	0.069	-1.230	5.20
32502	0.067	-1.525	5.20
32601	0.068	-0.960	5.22
32701	0.067	-1.255	5.24
32800	0.069	-1.210	5.24
32900	0.069	-0.995	5.28
33001	0.067	-1.265	5.30
33100	0.068	-1.225	5.30
33201	0.068	-0.865	5.32
33301	0.068	-1.525	5.34
33401	0.068	-1.220	5.34
33502	0.068	-0.970	5.38
33600	0.065	-1.245	5.38
33701	0.065	-1.125	5.40
33802	0.067	-0.930	5.42
33901	0.067	-1.185	5.42
34001	0.068	-0.910	5.46
34101	0.065	-1.250	5.48
34201	0.066	-1.205	5.48
34301	0.069	-1.255	5.50
34402	0.068	-1.520	5.52
34501	0.069	-1.240	5.52
34601	0.071	-1.270	5.56
34700	0.071	-1.590	5.58
34800	0.069	-1.240	5.58
34902	0.073	-1.285	5.60
35002	0.074	-1.490	5.62
35101	0.069	-0.860	5.62
35201	0.074	-1.200	5.66
35300	0.073	-1.150	5.68
35402	0.074	-0.865	5.68
35500	0.072	-1.545	5.70
35600	0.072	-0.900	5.74
35701	0.075	-1.260	5.74
35801	0.073	-1.620	5.76
35901	0.069	-0.990	5.78
36001	0.075	-1.295	5.78
36102	0.076	-1.620	5.80
36202	0.083	-1.260	5.84
36300	0.085	-1.640	5.84
36403	0.076	-1.595	5.86
36502	0.076	-0.970	5.88
36600	0.077	-1.570	5.88
36701	0.077	-1.245	5.90
36801	0.077	-1.285	5.94
36901	0.076	-1.285	5.94
37000	0.078	-0.925	5.96
37100	0.075	-1.550	5.98
37201	0.078	-1.570	5.98
37301	0.075	-0.965	6.00
37401	0.076	-1.330	6.04
37502	0.079	-1.600	6.04
37601	0.081	-1.305	6.06
37701	0.078	-1.400	6.08
37802	0.085	-1.350	6.08
37902	0.082	-0.830	6.12
38001	0.080	-1.430	6.14
38101	0.079	-1.110	6.14
38201	0.090	-1.180	6.16
38301	0.080	-1.165	6.18
38402	0.080	-1.160	6.18
38501	0.085	-1.225	6.22
38602	0.080	-1.475	6.24
38701	0.081	-1.235	6.24
38801	0.083	-1.545	6.26
38900	0.085	-0.905	6.28
39001	0.087	-1.280	6.28
39102	0.078	-1.580	6.32
39201	0.086	-1.260	6.32
39302	0.086	-1.025	6.34
39402	0.087	-1.610	6.36
39500	0.086	-1.060	6.36
39601	0.087	-1.320	6.40
39701	0.086	-1.295	6.42
39802	0.086	-1.035	6.42
39901	0.085	-1.345	6.44
40000	0.087	-1.040	6.46
40100	0.085	-1.355	6.46
40201	0.084	-1.570	6.50
40300	0.084	-1.050	6.52
40401	0.085	-1.370	6.52
40502	0.086	-1.600	6.54
40602	0.087	-1.340	6.56
40701	0.086	-1.385	6.56
40800	0.094	-1.335	6.60
40902	0.087	-1.060	6.62
41001	0.086	-1.640	6.62
41101	0.095	-1.345	6.64
41200	0.080	-1.400	6.64
41301	0.085	-1.655	6.68
41400	0.086	-1.100	6.70
41501	0.087	-1.415	6.70
41601	0.085	-1.385	6.72
41702	0.085	-1.375	6.74
41800	0.088	-1.650	6.74
41901	0.089	-1.375	6.78
42001	0.089	-1.000	6.80
42102	0.088	-1.545	6.80
42201	0.088	-1.275	6.82
42301	0.090	-1.315	6.84
42401	0.089	-1.320	6.84
42501	0.091	-1.070	6.88
42600	0.089	-1.615	6.90
42701	0.090	-1.355	6.90
42800	0.089	-1.095	6.92
42901	0.089	-1.660	6.94
43001	0.090	-1.380	6.94
43102	0.088	-1.100	6.98
43202	0.088	-1.390	6.98
43301	0.091	-1.355	7.00
43400	0.088	-1.415	7.02
43502	0.089	-1.640	7.02
43601	0.082	-1.125	7.06
43700	0.092	-1.640	7.08
43800	0.090	-1.370	7.08
43902	0.092	-1.380	7.10
44001	0.093	-1.695	7.12
44101	0.092	-1.330	7.12
44202	0.095	-1.090	7.16
44301	0.092	-1.640	7.18
44402	0.090	-1.360	7.18
44501	0.093	-1.095	7.20
44600	0.091	-1.385	7.22
44701	0.094	-1.090	7.22
44800	0.093	-1.165	7.26
44901	0.096	-1.140	7.28
45001	0.093	-0.820	7.28
45102	0.093	-1.210	7.30
45200	0.091	-1.160	7.30
45302	0.091	-1.170	7.34
45402	0.087	-1.530	7.36
45501	0.090	-1.190	7.36
45600	0.090	-1.250	7.38
45702	0.089	-1.545	7.40
45801	0.092	-0.950	7.40
45900	0.090	-1.305	7.44
46001	0.095	-1.565	7.46
46102	0.093	-1.280	7.46
46202	0.093	-1.330	7.48
46301	0.093	-1.305	7.50
46400	0.091	-1.340	7.50
46501	0.093	-1.665	7.54
46601	0.095	-1.070	7.56
46700	0.097	-1.390	7.56
46800	0.096	-1.600	7.58
46902	0.097	-1.360	7.60
47001	0.104	-1.415	7.60
47100	0.093	-1.380	7.64
47201	0.092	-1.060	7.66
47300	0.095	-1.755	7.66
47401	0.103	-1.380	7.68
47500	0.094	-1.425	7.72
47600	0.097	-1.645	7.72
47701	0.094	-1.395	7.74
47801	0.095	-1.445	7.76
47900	0.093	-1.430	7.76
48000	0.095	-1.410	7.78
48101	0.091	-1.420	7.82
48200	0.091	-1.375	7.82
48300	0.090	-1.040	7.84
48401	0.093	-1.370	7.86
48501	0.090	-1.335	7.86
48600	0.089	-1.375	7.88
48700	0.092	-1.620	7.92
48800	0.090	-1.050	7.92
48901	0.092	-1.420	7.94
49001	0.091	-1.760	7.96
49101	0.092	-1.050	7.96
49201	0.092	-1.430	8.00
49301	0.090	-1.395	8.02
49401	0.092	-1.075	8.02
49502	0.093	-1.440	8.04
49602	0.091	-1.695	8.06
49702	0.093	-1.180	8.06
49801	0.091	-1.720	8.10
49900	0.091	-1.120	8.12
50002	0.091	-1.440	8.12
50100	0.095	-1.735	8.14
50200	0.094	-0.995	8.16
50300	0.095	-1.660	8.16
50402	0.096	-1.720	8.20
50501	0.112	-1.340	8.22
50600	0.095	-1.710	8.22
50701	0.095	-1.355	8.24
50800	0.095	-1.370	8.24
50901	0.099	-1.665	8.28
51002	0.097	-1.150	8.30
51102	0.095	-0.885	8.30
51200	0.095	-1.415	8.32
51300	0.096	-0.895	8.34
51401	0.096	-1.245	8.34
51502	0.094	-1.515	8.38
51600	0.095	-0.945	8.40
51701	0.098	-1.285	8.40
51802	0.095	-1.260	8.42
51900	0.096	-1.290	8.44
52001	0.097	-1.610	8.44
52100	0.098	-0.970	8.48
52201	0.098	-1.330	8.50
52301	0.098	-1.605	8.50
52400	0.098	-1.330	8.52
52502	0.097	-1.360	8.54
52600	0.098	-1.340	8.54
52701	0.099	-1.340	8.58
52801	0.098	-1.400	8.58
52902	0.098	-1.375	8.60
53002	0.098	-1.125	8.62
53100	0.097	-1.620	8.62
53202	0.098	-1.385	8.66
53302	0.084	-1.410	8.68
53402	0.097	-1.720	8.68
53501	0.097	-1.395	8.70
53601	0.098	-1.450	8.72
53701	0.098	-1.420	8.72
53801	0.092	-1.185	8.76
53900	0.099	-1.720	8.78
54001	0.098	-1.420	8.78
54100	0.102	-1.465	8.80
54200	0.097	-1.450	8.82
54301	0.098	-1.415	8.82
54402	0.098	-1.440	8.86
54501	0.097	-1.715	8.88
54601	0.098	-1.440	8.88
54701	0.097	-1.495	8.90
54801	0.095	-1.750	8.90
54900	0.096	-1.485	8.94
55000	0.097	-1.760	8.96
55102	0.095	-1.485	8.96
55200	0.096	-1.510	8.98
55300	0.096	-1.500	9.00
55401	0.097	-1.485	9.00
55501	0.096	-1.530	9.04
55600	0.095	-1.505	9.06
55700	0.096	-1.510	9.06
55800	0.098	-1.770	9.08
55902	0.096	-1.530	9.10
56000	0.095	-1.275	9.10
56100	0.096	-1.815	9.14
56202	0.093	-1.765	9.16
56301	0.096	-1.555	9.16
56400	0.094	-1.550	9.18
56500	0.095	-1.285	9.18
56601	0.096	-1.575	9.22
56701	0.094	-1.830	9.24
56801	0.095	-1.295	9.24
56900	0.093	-1.600	9.26
57001	0.094	-1.570	9.28
57102	0.114	-1.550	9.28
57200	0.095	-1.910	9.32
57300	0.096	-1.560	9.34
57402	0.097	-1.565	9.34
57501	0.095	-1.880	9.36
57602	0.096	-1.575	9.38
57701	0.097	-1.605	9.38
57801	0.095	-1.910	9.42
57901	0.095	-1.235	9.44
58002	0.098	-1.600	9.44
58101	0.096	-1.835	9.46
58200	0.097	-1.605	9.48
58301	0.097	-1.885	9.48
58401	0.093	-1.595	9.52
58501	0.098	-1.230	9.54
58602	0.096	-1.650	9.56
58702	0.096	-1.595	9.56
58801	0.090	-1.635	9.60
58902	0.094	-1.900	9.62
59002	0.095	-1.610	9.62
59101	0.097	-1.660	9.64
59200	0.097	-1.620	9.66
59301	0.096	-1.270	9.66
59402	0.100	-1.680	9.70
59501	0.097	-1.430	9.72
59601	0.101	-1.175	9.72
59702	0.096	-1.500	9.74
59801	0.098	-1.190	9.76
59900	0.096	-1.515	9.76
60000	0.097	-1.755	9.80
60102	0.099	-1.490	9.82
60200	0.097	-1.860	9.82
60301	0.097	-1.760	9.84
60401	0.098	-1.185	9.84
60502	0.098	-1.575	9.88
60600	0.096	-1.535	9.90
60701	0.097	-1.160	9.90
60800	0.096	-1.825	9.92
60902	0.092	-1.545	9.94
61000	0.094	-1.245	9.94
61101	0.097	-1.970	9.98
61201	0.097	-1.230	10.00
61300	0.098	-1.640	10.00
61400	0.098	-1.860	10.02
61500	0.104	-1.280	10.04
61601	0.104	-1.880	10.04
61701	0.094	-1.600	10.08
61802	0.102	-1.285	10.10
61901	0.099	-1.950	10.10
62001	0.102	-1.580	10.12
62101	0.101	-1.650	10.14
62201	0.100	-1.995	10.14
62300	0.103	-1.305	10.18
62402	0.102	-1.335	10.18
62501	0.104	-1.655	10.20
62600	0.102	-1.345	10.22
62701	0.102	-1.650	10.22
62801	0.100	-1.600	10.26
62901	0.102	-1.370	10.28
63001	0.102	-1.930	10.28
63100	0.105	-1.290	10.30
63200	0.098	-1.610	10.32
63302	0.102	-1.605	10.32
63402	0.103	-1.565	10.36
63500	0.103	-1.630	10.38
63601	0.106	-1.930	10.38
63702	0.105	-1.345	10.40
63802	0.103	-1.670	10.42
63900	0.107	-1.625	10.42
64000	0.105	-1.665	10.46
64101	0.105	-1.950	10.48
64202	0.103	-1.650	10.48
64300	0.104	-1.690	10.50
64400	0.111	-1.670	10.54
64502	0.104	-1.650	10.54
64600	0.104	-1.705	10.56
64701	0.109	-1.935	10.58
64802	0.109	-1.585	10.58
64901	0.109	-1.645	10.60
65000	0.108	-1.610	10.60
65101	0.109	-1.410	10.64
65201	0.108	-1.940	10.66
65301	0.108	-1.645	10.66
65401	0.108	-1.690	10.68
65501	0.109	-1.960	10.70
65601	0.106	-1.670	10.70
65702	0.104	-1.375	10.74
65802	0.109	-1.960	10.76
65900	0.108	-1.690	10.76
66001	0.107	-1.725	10.78
66102	0.108	-1.705	10.82
66201	0.108	-1.455	10.82
66300	0.108	-1.715	10.84
66402	0.111	-1.710	10.84
66501	0.114	-1.745	10.86
66601	0.107	-1.995	10.88
66701	0.109	-1.705	10.88
66801	0.111	-1.765	10.92
66901	0.110	-1.710	10.94
67002	0.110	-1.445	10.94
67100	0.110	-2.055	10.96
67202	0.111	-1.740	10.98
67301	0.108	-1.710	11.02
67401	0.116	-1.970	11.02
67502	0.107	-1.720	11.04
67601	0.104	-1.730	11.06
67700	0.111	-1.735	11.06
67801	0.116	-1.455	11.08
67902	0.112	-1.440	11.08
68000	0.116	-1.735	11.12
68101	0.115	-1.465	11.14
68202	0.114	-1.770	11.16
68300	0.115	-1.745	11.16
68401	0.115	-1.485	11.20
68501	0.117	-2.085	11.20
68601	0.113	-1.755	11.22
68702	0.116	-1.440	11.24
68800	0.115	-1.775	11.24
68900	0.117	-1.450	11.26
69001	0.116	-1.820	11.30
69101	0.113	-1.985	11.30
69201	0.114	-1.330	11.32
69302	0.114	-1.680	11.34
69402	0.112	-1.675	11.34
69500	0.114	-1.460	11.36
69600	0.113	-2.040	11.40
69700	0.112	-1.340	11.40
69801	0.114	-1.390	11.42
69900	0.112	-2.045	11.44
70000	0.112	-1.405	11.44
70101	0.112	-1.800	11.48
70200	0.113	-1.775	11.50
70301	0.116	-1.475	11.50
70401	0.113	-1.830	11.52
70501	0.120	-1.770	11.54
70600	0.119	-1.630	11.54
70701	0.119	-1.940	11.58
70801	0.118	-1.620	11.60
70902	0.119	-1.310	11.60
71001	0.120	-2.080	11.62
71101	0.121	-1.385	11.64
71201	0.120	-1.740	11.64
71301	0.118	-1.715	11.68
71401	0.119	-1.375	11.70
71501	0.118	-2.020	11.70
71601	0.119	-1.730	11.72
71701	0.119	-1.390	11.72
71800	0.119	-2.140	11.76
71901	0.124	-1.750	11.78
72002	0.122	-1.405	11.78
72100	0.118	-2.095	11.80
72200	0.120	-1.460	11.82
72302	0.119	-1.825	11.82
72402	0.118	-2.210	11.86
72500	0.119	-1.455	11.88
72601	0.119	-1.860	11.88
72702	0.120	-2.055	11.90
72800	0.120	-1.850	11.92
72901	0.122	-2.190	11.92
73001	0.121	-1.660	11.96
73101	0.124	-1.410	11.98
73201	0.122	-2.110	11.98
73301	0.120	-1.475	12.00
73400	0.121	-2.075	12.02
73502	0.121	-2.140	12.02
73600	0.121	-1.445	12.06
73700	0.122	-2.160	12.08
73801	0.116	-1.790	12.08
73902	0.123	-1.450	12.10
74000	0.123	-2.140	12.10
74101	0.119	-1.580	12.14
74201	0.120	-1.860	12.16
74300	0.118	-1.805	12.16
74400	0.118	-1.455	12.18
74502	0.121	-1.600	12.20
74601	0.119	-1.805	12.20
74701	0.121	-1.425	12.24
74800	0.121	-2.190	12.26
74902	0.104	-2.080	12.26
75002	0.122	-1.490	12.28
75100	0.122	-2.130	12.30
75200	0.121	-1.520	12.30
75301	0.122	-1.865	12.34
75402	0.122	-2.200	12.36
75500	0.119	-1.540	12.36
75602	0.124	-1.645	12.38
75701	0.126	-1.860	12.42
75802	0.123	-1.455	12.42
75901	0.123	-1.825	12.44
76001	0.122	-1.795	12.46
76102	0.123	-1.490	12.46
76202	0.121	-2.150	12.48
76301	0.121	-1.825	12.52
76402	0.121	-1.505	12.52
76501	0.121	-2.090	12.54
76600	0.121	-1.535	12.56
76700	0.121	-2.130	12.56
76800	0.121	-1.835	12.58
76901	0.116	-1.595	12.62
77001	0.123	-1.905	12.62
77100	0.122	-1.600	12.64
77201	0.122	-1.890	12.66
77302	0.124	-1.920	12.66
77400	0.121	-1.600	12.68
77502	0.121	-1.590	12.72
77601	0.121	-2.195	12.72
77700	0.128	-1.605	12.74
77800	0.129	-1.705	12.74
77901	0.127	-1.680	12.76
78001	0.127	-1.705	12.80
78101	0.127	-1.745	12.80
78201	0.126	-1.720	12.82
78301	0.128	-1.760	12.84
78400	0.126	-2.040	12.84
78501	0.126	-1.755	12.86
78601	0.126	-1.800	12.86
78701	0.126	-1.810	12.90
78800	0.127	-1.495	12.92
78900	0.124	-1.815	12.92
79001	0.127	-1.795	12.94
79101	0.127	-1.505	12.96
79201	0.126	-1.770	12.96
79300	0.126	-1.730	13.00
79404	0.126	-1.755	13.02
79502	0.125	-2.040	13.02
79600	0.129	-1.505	13.04
79702	0.130	-1.445	13.08
79802	0.125	-2.065	13.08
79900	0.127	-1.470	13.10
80001	0.128	-1.825	13.12
80100	0.127	-1.795	13.12
80201	0.128	-1.535	13.14
80300	0.128	-2.245	13.18
80401	0.129	-2.085	13.18
80501	0.131	-1.590	13.20
80602	0.129	-2.125	13.22
80701	0.127	-1.845	13.22
80800	0.131	-1.900	13.24
80901	0.130	-2.265	13.24
81000	0.129	-1.525	13.28
81100	0.130	-2.250	13.30
81201	0.131	-2.250	13.32
81301	0.130	-1.515	13.32
81400	0.132	-2.325	13.36
81501	0.131	-1.875	13.36
81601	0.133	-1.490	13.38
81701	0.132	-2.315	13.40
81800	0.131	-1.545	13.42
81900	0.133	-1.950	13.42
82002	0.129	-2.360	13.46
82101	0.126	-1.525	13.48
82201	0.126	-1.910	13.48
82300	0.130	-1.890	13.50
82402	0.131	-1.510	13.52
82500	0.127	-2.285	13.52
82600	0.128	-1.855	13.56
82702	0.127	-1.560	13.58
82802	0.127	-2.245	13.58
82900	0.127	-1.460	13.60
83000	0.128	-1.875	13.62
83101	0.126	-2.285	13.62
83202	0.126	-1.850	13.66
83301	0.127	-1.925	13.66
83402	0.129	-2.340	13.68
83501	0.128	-1.495	13.70
83601	0.126	-2.250	13.70
83702	0.128	-2.220	13.74
83802	0.130	-1.535	13.76
83901	0.130	-2.090	13.76
84002	0.129	-1.770	13.78
84101	0.128	-1.830	13.80
84200	0.128	-1.805	13.80
84301	0.127	-1.495	13.84
84401	0.128	-1.890	13.86
84502	0.129	-2.240	13.86
84602	0.128	-1.540	13.88
84701	0.130	-2.170	13.90
84801	0.128	-1.870	13.90
84901	0.125	-1.670	13.94
85001	0.133	-2.255	13.96
85101	0.130	-1.890	13.96
85202	0.131	-1.595	13.98
85301	0.130	-2.180	14.02
85401	0.133	-1.905	14.02
85501	0.134	-1.975	14.04
85600	0.130	-1.880	14.04
85702	0.132	-1.625	14.06
85800	0.131	-2.330	14.08
85900	0.131	-1.630	14.08
86002	0.130	-1.550	14.12
86101	0.130	-2.220	14.14
86200	0.133	-1.520	14.14
86301	0.139	-1.915	14.16
86402	0.134	-2.295	14.18
86501	0.134	-1.590	14.18
86600	0.133	-2.140	14.22
86701	0.134	-2.240	14.24
86801	0.135	-1.590	14.24
86900	0.132	-2.230	14.26
87000	0.139	-1.615	14.30
87102	0.136	-1.560	14.30
87201	0.137	-2.275	14.32
87300	0.134	-1.585	14.34
87400	0.138	-2.215	14.34
87502	0.139	-2.280	14.36
87601	0.137	-1.620	14.40
87700	0.141	-2.255	14.40
87801	0.132	-1.975	14.42
87901	0.141	-1.640	14.44
88001	0.138	-2.295	14.44
88101	0.138	-1.980	14.46
88201	0.139	-1.675	14.50
88302	0.139	-1.655	14.50
88402	0.138	-1.990	14.52
88500	0.136	-2.045	14.54
88600	0.134	-2.015	14.54
88701	0.139	-1.675	14.56
88801	0.139	-2.065	14.60
88900	0.138	-2.015	14.60
89001	0.136	-1.685	14.62
89101	0.137	-2.320	14.64
89201	0.136	-2.015	14.64
89301	0.143	-1.770	14.68
89402	0.136	-2.075	14.70
89501	0.134	-1.995	14.70
89600	0.135	-2.065	14.72
89701	0.135	-2.345	14.74
89800	0.137	-1.710	14.74
89901	0.137	-2.085	14.78
90001	0.135	-2.040	14.78
90102	0.134	-1.700	14.80
90202	0.135	-2.080	14.82
90301	0.135	-2.040	14.82
90401	0.134	-1.845	14.84
90500	0.134	-2.390	14.88
90600	0.139	-1.720	14.88
90702	0.140	-1.795	14.90
90801	0.133	-2.370	14.92
90902	0.136	-2.060	14.92
91000	0.134	-2.390	14.96
91101	0.135	-2.420	14.98
91202	0.135	-1.750	14.98
91301	0.135	-2.390	15.00
91401	0.135	-2.090	15.02
91500	0.139	-2.135	15.02
91602	0.135	-2.145	15.06
91702	0.134	-2.095	15.08
91800	0.135	-2.160	15.08
91900	0.135	-2.110	15.10
92001	0.137	-1.745	15.12
92100	0.136	-2.495	15.12
92200	0.134	-2.110	15.16
92300	0.133	-1.865	15.18
92401	0.135	-2.415	15.18
92501	0.133	-2.135	15.20
92600	0.143	-1.970	15.22
92701	0.141	-2.260	15.22
92802	0.141	-1.835	15.26
92901	0.137	-1.465	15.26
93001	0.140	-2.345	15.28
93101	0.140	-1.620	15.30
93201	0.139	-1.580	15.30
93301	0.140	-2.365	15.34
93401	0.137	-1.535	15.36
93501	0.137	-2.395	15.36
93602	0.138	-2.225	15.38
93701	0.133	-1.660	15.40
93801	0.138	-2.480	15.40
93901	0.136	-1.630	15.44
94002	0.139	-1.755	15.46
94101	0.137	-2.425	15.46
94201	0.138	-1.645	15.48
94302	0.121	-2.090	15.50
94400	0.138	-2.055	15.50
94501	0.139	-1.665	15.54
94602	0.143	-2.125	15.56
94700	0.136	-2.075	15.56
94800	0.137	-2.130	15.58
94901	0.137	-2.520	15.62
95001	0.136	-1.805	15.62
95100	0.138	-1.830	15.64
95201	0.138	-2.580	15.66
95302	0.139	-2.105	15.66
95402	0.138	-2.155	15.68
95501	0.140	-2.130	15.72
95602	0.131	-1.775	15.72
95700	0.138	-2.560	15.74
95801	0.140	-2.135	15.76
95902	0.139	-1.845	15.76
96000	0.139	-2.465	15.78
96101	0.138	-2.150	15.82
96201	0.138	-2.200	15.82
96300	0.140	-2.175	15.84
96401	0.142	-1.880	15.86
96502	0.137	-1.860	15.86
96602	0.139	-2.555	15.90
96701	0.137	-1.825	15.92
96800	0.142	-2.200	15.92
96901	0.140	-2.120	15.94
97002	0.143	-1.795	15.96
97100	0.141	-2.195	15.96
97200	0.139	-1.755	16.00
97301	0.140	-1.920	16.02
97402	0.140	-2.500	16.02
97500	0.134	-1.705	16.04
97601	0.137	-2.160	16.06
97700	0.141	-2.120	16.06
97801	0.145	-1.770	16.10
97901	0.144	-2.125	16.12
98001	0.144	-2.015	16.12
98101	0.142	-1.755	16.14
98201	0.142	-2.445	16.16
98301	0.140	-2.045	16.16
98401	0.141	-2.095	16.20
98501	0.140	-2.315	16.20
98602	0.141	-2.070	16.22
98700	0.139	-2.390	16.24
98800	0.138	-2.080	16.24
98901	0.141	-1.785	16.28
99000	0.142	-2.555	16.30
99100	0.144	-1.860	16.30
99200	0.142	-2.170	16.32
99302	0.141	-2.490	16.34
99401	0.141	-1.805	16.34
99500	0.142	-2.445	16.38
99600	0.144	-2.155	16.40
99701	0.139	-1.890	16.40
99801	0.141	-2.180	16.42
99901	0.142	-2.155	16.44
100001	0.144	-1.765	16.44
100101	0.144	-2.550	16.48
100200	0.141	-1.910	16.50
100300	0.141	-2.205	16.50
100400	0.142	-2.520	16.52
100501	0.139	-1.815	16.52
100600	0.143	-2.225	16.56
100700	0.138	-2.190	16.58
100800	0.139	-1.885	16.58
100901	0.144	-2.475	16.60
101000	0.142	-2.195	16.62
101100	0.142	-1.960	16.62
101201	0.144	-2.575	16.66
101300	0.142	-1.965	16.68
101401	0.138	-2.240	16.68
101501	0.151	-2.470	16.70
101600	0.138	-1.810	16.72
101701	0.135	-2.205	16.72
101802	0.148	-2.505	16.76
101900	0.144	-1.810	16.78
102000	0.145	-2.220	16.78
102101	0.145	-2.190	16.80
102201	0.144	-1.890	16.80
102301	0.144	-2.250	16.84
102401	0.142	-2.195	16.86
102500	0.151	-2.240	16.86
102601	0.143	-2.550	16.88
102702	0.145	-2.210	16.90
102801	0.147	-1.980	16.90
102901	0.147	-2.575	16.94
103002	0.145	-2.220	16.96
103101	0.144	-2.275	16.96
103200	0.145	-2.245	16.98
103301	0.144	-1.920	17.00
103402	0.144	-2.305	17.00
103501	0.143	-2.490	17.04
103601	0.145	-1.845	17.06
103702	0.142	-2.430	17.06
103801	0.142	-1.915	17.08
103901	0.145	-2.200	17.10
104002	0.140	-2.245	17.10
104101	0.145	-1.930	17.14
104201	0.144	-2.170	17.14
104300	0.143	-2.520	17.16
104400	0.143	-1.845	17.18
104501	0.145	-2.490	17.18
104600	0.144	-1.870	17.22
104700	0.145	-2.195	17.24
104801	0.143	-2.595	17.24
104902	0.146	-2.150	17.26
105001	0.145	-2.210	17.28
105102	0.144	-2.655	17.28
105200	0.143	-1.800	17.32
105301	0.141	-2.255	17.34
105401	0.144	-2.470	17.34
105500	0.145	-1.790	17.36
105602	0.142	-2.260	17.38
105701	0.143	-2.200	17.38
105800	0.141	-2.260	17.42
105900	0.146	-2.645	17.44
106001	0.143	-2.725	17.44
106101	0.140	-2.285	17.46
106200	0.143	-2.255	17.46
106300	0.141	-1.845	17.50
106401	0.142	-2.305	17.52
106502	0.143	-2.685	17.52
106600	0.142	-1.905	17.54
106700	0.141	-2.645	17.56
106802	0.140	-2.525	17.56
106901	0.145	-2.240	17.60
107000	0.139	-2.555	17.62
107100	0.144	-1.855	17.62
107202	0.143	-1.675	17.64
107300	0.144	-2.115	17.66
107401	0.151	-1.720	17.70
107500	0.142	-2.565	17.70
107601	0.143	-2.590	17.72
107702	0.144	-1.835	17.72
107800	0.142	-2.570	17.74
107901	0.142	-2.200	17.76
108001	0.142	-1.810	17.76
108101	0.141	-2.630	17.80
108201	0.135	-2.210	17.82
108300	0.143	-2.585	17.82
108401	0.142	-2.635	17.84
108502	0.141	-2.235	17.88
108600	0.138	-2.700	17.88
108701	0.143	-2.710	17.90
108801	0.144	-1.905	17.90
108902	0.137	-2.335	17.92
109001	0.144	-2.290	17.94
109102	0.144	-1.880	17.98
109201	0.142	-2.735	17.98
109300	0.141	-2.740	18.00
109402	0.141	-1.935	18.02
109502	0.142	-2.595	18.02
109600	0.142	-1.855	18.04
109700	0.145	-2.675	18.04
109801	0.142	-2.255	18.08
109902	0.141	-1.990	18.10
110000	0.143	-2.705	18.10
110100	0.142	-1.955	18.12
110202	0.148	-1.950	18.16
110301	0.144	-2.655	18.16
110401	0.142	-2.585	18.18
110502	0.141	-1.975	18.20
110601	0.142	-2.605	18.20
110701	0.144	-2.015	18.22
110801	0.143	-2.375	18.22
110901	0.140	-2.350	18.26
111001	0.141	-1.990	18.28
111101	0.140	-2.335	18.28
111200	0.141	-2.055	18.30
111301	0.145	-2.340	18.32
111402	0.140	-2.655	18.32
111501	0.140	-2.320	18.36
111600	0.141	-2.385	18.38
111701	0.141	-2.725	18.38
111802	0.140	-2.300	18.40
111902	0.142	-2.365	18.44
112001	0.135	-2.335	18.44
112101	0.148	-1.985	18.46
112201	0.147	-2.765	18.48
112300	0.142	-2.025	18.48
112400	0.147	-2.400	18.50
112502	0.143	-2.700	18.54
112600	0.143	-2.005	18.56
112701	0.145	-2.410	18.56
112800	0.142	-2.375	18.58
112901	0.144	-2.005	18.60
113001	0.143	-2.400	18.60
113100	0.140	-2.360	18.64
113200	0.145	-2.400	18.66
113301	0.139	-2.785	18.66
113400	0.141	-2.105	18.68
113500	0.140	-2.395	18.70
113600	0.141	-2.700	18.70
113701	0.141	-2.370	18.74
113802	0.140	-2.140	18.74
113900	0.139	-2.775	18.76
114000	0.141	-2.080	18.78
114101	0.139	-2.450	18.78
114201	0.140	-2.410	18.82
114302	0.141	-2.030	18.82
114401	0.139	-2.725	18.84
114500	0.134	-2.115	18.86
114602	0.139	-2.115	18.86
114701	0.138	-2.740	18.88
114801	0.137	-2.405	18.92
114902	0.138	-2.095	18.92
115001	0.140	-2.830	18.94
115101	0.141	-2.000	18.96
115200	0.140	-2.600	18.96
115302	0.141	-2.640	18.98
115400	0.141	-1.925	19.02
115501	0.142	-2.350	19.02
115602	0.137	-2.315	19.04
115702	0.140	-1.925	19.06
115800	0.139	-2.760	19.06
115900	0.141	-1.925	19.10
116001	0.139	-2.385	19.12
116101	0.141	-2.720	19.12
116200	0.142	-1.990	19.14
116301	0.141	-2.430	19.16
116402	0.135	-2.755	19.16
116501	0.140	-2.020	19.20
116600	0.140	-2.840	19.22
116701	0.140	-2.385	19.22
116801	0.140	-2.130	19.24
116902	0.138	-2.780	19.26
117001	0.140	-2.395	19.26
117102	0.140	-1.940	19.30
117201	0.143	-2.835	19.32
117300	0.142	-1.940	19.32
117401	0.144	-2.425	19.34
117502	0.142	-2.855	19.34
117601	0.143	-1.995	19.38
117702	0.142	-2.460	19.40
117801	0.143	-2.365	19.40
117901	0.144	-2.025	19.42
118002	0.142	-2.455	19.44
118100	0.136	-2.050	19.44
118201	0.145	-2.445	19.48
118300	0.145	-2.420	19.50
118402	0.142	-2.405	19.50
118501	0.145	-2.475	19.52
118602	0.144	-2.915	19.54
118701	0.145	-1.960	19.54
118802	0.142	-2.475	19.58
118901	0.147	-2.435	19.60
119002	0.145	-2.110	19.60
119102	0.143	-2.485	19.62
119200	0.147	-2.120	19.64
119301	0.147	-2.480	19.64
119401	0.145	-2.920	19.68
119502	0.148	-2.455	19.70
119600	0.146	-2.515	19.70
119701	0.148	-2.840	19.72
119801	0.147	-2.005	19.76
119900	0.148	-2.915	19.76
120001	0.145	-2.430	19.78
120100	0.147	-2.505	19.80
120201	0.144	-2.925	19.80
120305	0.149	-2.530	19.82
120402	0.147	-2.130	19.86
120500	0.147	-2.790	19.86
120601	0.144	-1.945	19.88
120702	0.145	-2.210	19.90
120801	0.146	-2.855	19.90
120901	0.146	-2.015	19.92
121001	0.143	-2.895	19.96
121101	0.141	-2.455	19.98
121200	0.151	-2.240	19.98
121302	0.147	-2.750	20.00
121402	0.145	-2.470	20.00
121501	0.146	-2.460	20.04
121601	0.143	-2.740	20.06
121702	0.145	-2.430	20.06
121801	0.146	-2.510	20.08
121901	0.141	-2.750	20.10
122001	0.152	-2.120	20.10
122100	0.149	-2.800	20.14
122201	0.151	-2.380	20.16
122302	0.149	-2.015	20.16
122401	0.147	-2.835	20.18
122500	0.149	-2.105	20.20
122600	0.147	-2.500	20.20
122702	0.146	-2.745	20.24
122801	0.148	-2.040	20.26
122900	0.148	-2.855	20.26
123000	0.146	-2.445	20.28
123101	0.151	-2.060	20.30
123202	0.150	-2.450	20.30
123301	0.152	-2.385	20.34
123400	0.149	-2.440	20.34
123501	0.143	-2.620	20.36
123601	0.151	-2.250	20.38
123701	0.152	-2.310	20.38
123802	0.151	-2.730	20.42
123902	0.149	-2.320	20.44
124000	0.152	-2.735	20.44
124101	0.152	-2.355	20.46
124201	0.157	-2.025	20.48
124301	0.152	-2.770	20.48
124400	0.148	-2.100	20.52
124500	0.150	-2.445	20.54
124602	0.152	-2.810	20.54
124701	0.154	-2.065	20.56
124801	0.155	-2.475	20.58
124900	0.155	-2.715	20.58
125001	0.157	-2.185	20.62
125100	0.152	-2.825	20.62
125200	0.148	-2.460	20.64
125300	0.149	-2.485	20.66
125401	0.148	-2.855	20.66
125500	0.149	-2.460	20.70
125601	0.151	-2.160	20.72
125701	0.145	-2.810	20.72
125801	0.149	-2.455	20.74
125901	0.147	-2.510	20.76
126001	0.152	-2.870	20.76
126101	0.141	-2.200	20.80
126201	0.149	-2.785	20.82
126300	0.149	-2.495	20.82
126401	0.164	-2.150	20.84
126501	0.162	-2.850	20.86
126600	0.166	-2.490	20.86
126700	0.160	-2.310	20.90
126800	0.167	-2.860	20.92
126901	0.158	-2.220	20.92
127000	0.162	-2.580	20.94
127101	0.160	-2.980	20.94
127200	0.159	-2.145	20.98
127302	0.162	-2.585	21.00
127401	0.160	-2.545	21.00
127501	0.161	-2.210	21.02
127602	0.164	-2.595	21.04
127701	0.163	-2.560	21.04
127802	0.160	-2.200	21.08
127902	0.167	-2.940	21.10
128000	0.158	-2.295	21.10
128100	0.158	-2.550	21.12
128201	0.157	-2.815	21.14
128301	0.162	-2.005	21.14
128400	0.150	-2.815	21.18
128501	0.149	-2.775	21.20
128602	0.150	-2.060	21.20
128700	0.149	-2.820	21.22
128800	0.149	-2.155	21.24
128900	0.151	-2.510	21.24
129001	0.151	-2.975	21.28
129101	0.149	-2.480	21.28
129202	0.150	-2.270	21.30
129300	0.150	-2.865	21.32
129401	0.154	-2.165	21.32
129502	0.154	-2.315	21.36
129601	0.151	-2.790	21.38
129702	0.153	-2.110	21.38
129800	0.154	-3.070	21.40
129901	0.155	-2.555	21.42
130000	0.154	-2.610	21.46
130100	0.153	-2.955	21.46
130201	0.151	-2.560	21.48
130301	0.155	-2.630	21.50
130400	0.153	-2.900	21.50
130500	0.151	-2.155	21.52
130601	0.150	-2.650	21.56
130701	0.152	-2.950	21.56
130800	0.151	-2.295	21.58
130900	0.153	-3.045	21.60
131001	0.152	-2.580	21.60
131102	0.142	-2.135	21.64
131202	0.145	-3.040	21.66
131301	0.151	-2.580	21.66
131402	0.148	-2.295	21.68
131502	0.150	-3.085	21.70
131600	0.152	-2.245	21.70
131702	0.152	-2.665	21.74
131801	0.151	-2.830	21.76
131900	0.152	-2.140	21.76
132001	0.151	-2.945	21.78
132100	0.151	-2.505	21.80
132201	0.151	-2.155	21.80
132300	0.150	-2.925	21.84
132401	0.151	-2.205	21.86
132500	0.150	-2.170	21.86
132600	0.153	-2.830	21.88
132702	0.150	-2.575	21.88
132801	0.151	-2.945	21.92
132901	0.150	-3.050	21.94
133000	0.152	-2.155	21.94
133101	0.147	-2.655	21.96
133202	0.152	-2.905	21.98
133302	0.150	-2.205	21.98
133401	0.149	-3.020	22.02
133500	0.151	-2.195	22.04
133601	0.149	-2.650	22.04
133700	0.147	-2.915	22.06
133801	0.156	-2.290	22.08
133900	0.144	-3.045	22.08
134001	0.139	-2.640	22.12
134102	0.154	-2.315	22.14
134200	0.148	-3.015	22.14
134301	0.151	-2.645	22.16
134402	0.145	-2.280	22.18
134502	0.141	-2.990	22.18
134601	0.148	-2.625	22.22
134701	0.146	-2.690	22.22
134801	0.148	-2.660	22.24
134900	0.145	-2.295	22.26
135001	0.153	-2.690	22.26
135102	0.149	-3.045	22.30
135200	0.147	-2.355	22.32
135300	0.149	-3.090	22.32
135401	0.148	-2.660	22.34
135502	0.150	-2.260	22.36
135600	0.147	-3.125	22.36
135700	0.148	-2.665	22.40
135801	0.142	-2.720	22.42
135901	0.147	-3.115	22.42
136001	0.147	-2.315	22.44
136101	0.147	-2.750	22.46
136201	0.146	-2.710	22.46
136301	0.147	-2.390	22.50
136402	0.146	-2.770	22.52
136501	0.146	-2.720	22.52
136600	0.145	-2.760	22.54
136702	0.144	-2.780	22.54
136802	0.145	-2.725	22.58
136900	0.143	-2.780	22.60
137002	0.147	-3.145	22.60
137101	0.148	-2.340	22.62
137202	0.143	-2.760	22.64
137300	0.146	-2.725	22.64
137400	0.147	-2.500	22.68
137500	0.145	-3.190	22.70
137601	0.150	-2.735	22.70
137702	0.143	-2.340	22.72
137800	0.147	-3.185	22.74
137901	0.140	-2.750	22.74
138000	0.144	-2.810	22.78
138101	0.146	-3.030	22.80
138201	0.145	-2.745	22.80
138300	0.145	-2.795	22.82
138401	0.140	-3.075	22.84
138501	0.145	-2.385	22.84
138601	0.146	-2.815	22.88
138700	0.146	-2.470	22.88
138801	0.144	-2.390	22.90
138902	0.140	-3.135	22.92
139001	0.145	-2.765	22.92
139101	0.147	-2.835	22.96
139201	0.144	-3.060	22.98
139300	0.145	-2.410	22.98
139400	0.146	-2.845	23.00
139502	0.139	-3.225	23.02
139601	0.147	-2.425	23.02
139701	0.145	-3.165	23.06
139802	0.145	-3.260	23.08
139900	0.144	-2.825	23.08
140001	0.139	-3.085	23.10
140101	0.143	-2.745	23.12
140201	0.146	-2.830	23.12
140302	0.144	-3.265	23.16
140402	0.145	-2.775	23.16
140500	0.146	-3.240	23.18
140602	0.144	-3.275	23.20
140701	0.146	-2.405	23.20
140801	0.149	-3.140	23.24
140902	0.145	-2.940	23.26
141002	0.147	-2.155	23.26
141101	0.147	-3.020	23.28
141201	0.146	-2.370	23.30
141302	0.152	-2.205	23.30
141402	0.145	-3.140	23.34
141500	0.147	-2.220	23.36
141600	0.147	-3.105	23.36
141701	0.146	-2.980	23.38
141800	0.146	-2.245	23.40
141900	0.146	-3.195	23.40
142001	0.146	-2.705	23.44
142102	0.149	-2.270	23.46
142200	0.149	-3.145	23.46
142302	0.147	-2.955	23.48
142401	0.151	-2.770	23.52
142501	0.146	-3.150	23.52
142600	0.147	-2.210	23.54
142700	0.146	-3.075	23.56
142801	0.147	-2.975	23.56
142900	0.147	-2.390	23.58
143000	0.155	-3.080	23.62
143101	0.149	-2.710	23.62
143201	0.141	-2.470	23.64
143300	0.147	-3.205	23.66
143402	0.146	-3.070	23.66
143501	0.149	-2.790	23.68
143601	0.145	-3.185	23.72
143701	0.148	-2.300	23.72
143800	0.146	-3.110	23.74
143900	0.146	-2.750	23.76
144001	0.149	-2.345	23.76
144101	0.148	-3.105	23.78
144200	0.149	-2.730	23.82
144300	0.147	-2.505	23.82
144401	0.145	-3.175	23.84
144501	0.149	-2.765	23.86
144602	0.149	-2.560	23.86
144702	0.147	-3.165	23.90
144802	0.149	-2.775	23.92
144901	0.146	-2.855	23.92
145001	0.147	-3.250	23.94
145101	0.149	-2.380	23.96
145202	0.146	-2.840	23.96
145302	0.147	-3.040	24.00
145400	0.149	-2.855	24.02
145500	0.144	-3.085	24.02
145601	0.148	-2.805	24.04
145702	0.150	-2.565	24.06
145800	0.145	-3.200	24.06
145901	0.147	-2.485	24.10
146002	0.145	-2.885	24.12
146100	0.146	-2.855	24.12
146200	0.147	-2.540	24.14
146300	0.150	-3.190	24.14
146402	0.151	-2.775	24.18
146501	0.148	-2.420	24.20
146600	0.151	-3.110	24.20
146701	0.151	-2.460	24.22
146801	0.148	-2.855	24.24
146900	0.152	-3.195	24.24
147002	0.151	-2.815	24.28
147102	0.147	-2.865	24.30
147200	0.147	-3.205	24.30
147301	0.150	-2.480	24.32
147402	0.150	-2.875	24.34
147501	0.149	-2.785	24.34
147600	0.148	-2.545	24.38
147700	0.153	-3.280	24.40
147802	0.150	-2.820	24.40
147901	0.150	-2.875	24.42
148000	0.153	-3.240	24.42
148102	0.152	-2.825	24.46
148202	0.150	-2.535	24.48
148302	0.156	-3.280	24.48
148400	0.149	-2.520	24.50
148501	0.152	-3.265	24.52
148601	0.148	-2.855	24.52
148700	0.150	-2.920	24.56
148800	0.149	-3.115	24.58
148901	0.152	-2.865	24.58
149001	0.151	-2.930	24.60
149100	0.149	-2.890	24.62
149200	0.152	-2.510	24.62
149302	0.152	-2.935	24.66
149402	0.149	-3.240	24.68
149501	0.150	-2.505	24.68
149600	0.149	-3.355	24.70
149702	0.151	-3.310	24.72
149802	0.150	-2.575	24.72
149901	0.153	-3.310	24.76
150001	0.152	-2.655	24.76
150102	0.151	-2.650	24.78
150200	0.152	-3.235	24.80
150300	0.149	-2.555	24.80
150401	0.149	-2.970	24.84
150501	0.151	-3.295	24.86
150601	0.148	-2.590	24.86
150701	0.151	-3.005	24.88
150801	0.149	-3.230	24.90
150901	0.150	-2.625	24.90
151000	0.146	-3.320	24.94
151100	0.152	-2.920	24.96
151202	0.149	-2.545	24.96
151301	0.149	-3.405	24.98
151401	0.150	-2.650	25.00
151501	0.149	-3.020	25.00
151601	0.149	-3.330	25.04
151701	0.149	-2.500	25.06
151801	0.147	-2.975	25.06
151902	0.151	-3.250	25.08
152001	0.146	-2.495	25.12
152101	0.149	-3.375	25.12
152201	0.151	-2.935	25.14
152302	0.149	-2.675	25.16
152402	0.149	-3.470	25.16
152501	0.149	-2.685	25.18
152602	0.144	-3.005	25.22
152702	0.147	-3.460	25.22
152800	0.149	-2.585	25.24
152901	0.153	-3.040	25.26
153001	0.147	-2.965	25.26
153102	0.149	-2.545	25.28
153200	0.149	-3.450	25.28
153300	0.148	-2.575	25.32
153402	0.150	-2.555	25.34
153500	0.148	-3.380	25.34
153600	0.147	-2.545	25.36
153701	0.148	-3.080	25.38
153802	0.148	-3.520	25.42
153902	0.147	-2.620	25.42
154002	0.149	-3.095	25.44
154100	0.148	-2.800	25.46
154201	0.147	-2.695	25.46
154301	0.150	-3.505	25.50
154400	0.148	-2.740	25.52
154500	0.151	-3.100	25.52
154601	0.148	-3.525	25.54
154700	0.149	-2.780	25.56
154801	0.148	-3.110	25.56
154901	0.154	-3.400	25.60
155001	0.148	-2.640	25.62
155100	0.148	-3.505	25.62
155200	0.152	-2.805	25.64
155300	0.149	-2.680	25.66
155401	0.149	-3.425	25.66
155502	0.150	-2.950	25.70
155601	0.150	-3.005	25.70
155701	0.149	-3.275	25.72
155802	0.146	-2.895	25.74
155901	0.149	-2.735	25.74
156000	0.148	-2.930	25.78
156101	0.148	-2.545	25.80
156201	0.149	-2.970	25.80
156300	0.149	-2.680	25.82
156400	0.151	-2.985	25.84
156502	0.147	-3.005	25.84
156601	0.150	-2.945	25.88
156700	0.149	-3.265	25.90
156801	0.152	-3.415	25.90
156902	0.147	-2.625	25.92
157001	0.147	-3.035	25.94
157100	0.150	-2.990	25.94
157201	0.147	-2.615	25.98
157302	0.144	-3.070	26.00
157401	0.149	-3.335	26.00
157500	0.149	-3.085	26.02
157602	0.149	-3.265	26.02
157702	0.148	-2.945	26.06
157801	0.147	-3.025	26.08
157900	0.149	-3.000	26.08
158001	0.148	-2.620	26.10
158102	0.149	-2.690	26.12
158202	0.147	-3.455	26.12
158301	0.147	-2.755	26.16
158401	0.151	-3.315	26.18
158501	0.147	-2.965	26.18
158602	0.149	-2.560	26.20
158701	0.147	-3.360	26.22
158801	0.147	-2.670	26.22
158901	0.148	-3.040	26.26
159001	0.147	-3.455	26.28
159101	0.148	-2.675	26.28
159202	0.149	-3.065	26.30
159301	0.148	-3.040	26.32
159401	0.149	-2.630	26.32
159501	0.146	-3.355	26.36
159601	0.149	-3.045	26.36
159701	0.150	-2.640	26.38
159801	0.148	-3.505	26.40
159901	0.148	-2.760	26.40
160001	0.146	-2.820	26.44
160101	0.148	-3.555	26.46
160202	0.143	-3.070	26.46
160302	0.149	-3.135	26.48
160400	0.150	-3.085	26.50
160501	0.150	-2.675	26.50
160601	0.153	-3.465	26.54
160700	0.149	-2.730	26.56
160801	0.151	-2.705	26.56
160900	0.152	-3.365	26.58
161002	0.151	-3.040	26.60
161101	0.151	-3.095	26.60
161200	0.149	-3.335	26.64
161301	0.147	-2.620	26.66
161402	0.149	-3.050	26.66
161500	0.149	-3.025	26.68
161600	0.150	-2.835	26.72
161702	0.153	-3.100	26.72
161801	0.152	-3.015	26.74
161901	0.152	-2.790	26.76
162000	0.151	-3.465	26.76
162100	0.154	-2.640	26.78
162200	0.153	-3.130	26.78
162301	0.155	-3.330	26.82
162401	0.153	-3.040	26.84
162500	0.153	-3.365	26.84
162601	0.155	-3.315	26.86
162701	0.161	-2.690	26.88
162802	0.160	-3.125	26.88
162900	0.155	-3.065	26.92
163002	0.156	-2.695	26.94
163102	0.156	-3.410	26.94
163201	0.160	-3.090	26.96
163301	0.152	-2.710	27.00
163402	0.154	-3.570	27.00
163501	0.155	-2.860	27.02
163600	0.153	-3.175	27.04
163701	0.152	-3.460	27.04
163802	0.153	-2.755	27.06
163901	0.153	-3.140	27.10
164000	0.154	-2.740	27.10
164102	0.155	-2.655	27.12
164201	0.136	-3.610	27.12
164301	0.155	-3.115	27.14
164402	0.161	-2.695	27.16
164501	0.154	-3.625	27.16
164602	0.150	-3.135	27.20
164700	0.148	-3.400	27.22
164801	0.154	-3.655	27.22
164901	0.150	-2.705	27.24
165001	0.157	-3.455	27.26
165101	0.149	-3.425	27.26
165201	0.148	-3.155	27.30
165302	0.161	-3.495	27.32
165402	0.154	-3.160	27.32
165501	0.165	-2.785	27.34
165601	0.154	-3.690	27.38
165701	0.153	-3.175	27.38
165800	0.157	-3.580	27.40
165902	0.154	-3.660	27.42
166001	0.154	-2.865	27.42
166101	0.154	-3.250	27.44
166202	0.155	-3.655	27.48
166302	0.154	-2.725	27.50
166400	0.157	-3.585	27.50
166501	0.155	-3.150	27.52
166602	0.155	-3.455	27.54
166701	0.159	-3.570	27.54
166801	0.158	-2.795	27.58
166900	0.154	-3.185	27.60
167001	0.155	-3.135	27.60
167102	0.156	-2.785	27.62
167200	0.156	-3.610	27.62
167301	0.155	-3.135	27.66
167402	0.153	-2.870	27.68
167500	0.159	-3.550	27.68
167600	0.155	-2.915	27.70
167700	0.154	-3.235	27.72
167801	0.154	-3.640	27.72
167901	0.142	-2.800	27.76
168002	0.153	-2.770	27.78
168100	0.154	-3.135	27.78
168202	0.153	-3.145	27.80
168301	0.151	-3.560	27.82
168401	0.153	-3.150	27.82
168501	0.152	-2.720	27.86
168601	0.151	-3.660	27.88
168701	0.151	-2.835	27.88
168801	0.154	-3.000	27.90
168901	0.152	-3.585	27.92
169002	0.152	-3.200	27.92
169100	0.154	-3.645	27.96
169200	0.149	-3.215	27.96
169302	0.154	-2.885	27.98
169402	0.152	-3.295	28.00
169501	0.152	-3.235	28.00
169600	0.153	-3.285	28.04
169700	0.153	-3.615	28.06
169802	0.151	-3.250	28.06
169902	0.149	-2.945	28.08
170002	0.151	-3.765	28.10
170102	0.144	-3.255	28.10
170201	0.150	-3.325	28.14
170302	0.151	-3.730	28.16
170402	0.147	-2.965	28.16
170502	0.151	-3.350	28.18
170601	0.152	-3.290	28.20
170702	0.150	-2.890	28.20
170802	0.150	-3.695	28.24
170900	0.150	-2.930	28.24
171001	0.150	-3.350	28.26
171102	0.152	-3.790	28.28
171200	0.153	-2.870	28.28
171302	0.154	-2.845	28.32
171401	0.155	-3.700	28.34
171501	0.151	-2.850	28.34
171601	0.153	-3.380	28.36
171702	0.155	-3.610	28.38
171800	0.153	-3.370	28.38
171901	0.159	-3.700	28.42
172001	0.151	-3.270	28.44
172101	0.149	-3.100	28.44
172202	0.149	-3.825	28.46
172300	0.149	-2.895	28.48
172401	0.153	-3.345	28.48
172502	0.151	-3.635	28.52
172600	0.152	-2.995	28.54
172701	0.150	-3.360	28.54
172802	0.150	-3.785	28.56
172902	0.144	-2.915	28.60
173001	0.150	-3.795	28.60
173102	0.149	-3.330	28.62
173201	0.149	-3.385	28.64
173302	0.148	-3.815	28.64
173400	0.156	-2.920	28.66
173501	0.148	-3.395	28.70
173602	0.148	-3.790	28.70
173700	0.143	-3.015	28.72
173800	0.149	-3.765	28.74
173902	0.148	-3.785	28.74
174002	0.149	-2.960	28.76
174100	0.147	-3.720	28.76
174200	0.149	-3.030	28.80
174301	0.148	-3.330	28.82
174402	0.150	-3.745	28.82
174501	0.150	-3.010	28.84
174600	0.151	-3.690	28.86
174702	0.149	-3.400	28.86
174801	0.149	-2.990	28.90
174900	0.151	-3.765	28.92
175001	0.145	-3.280	28.92
175101	0.152	-3.335	28.94
175200	0.149	-3.725	28.98
175301	0.149	-3.320	29.00
175402	0.146	-2.940	29.00
175501	0.152	-3.665	29.02
175600	0.151	-2.870	29.04
175701	0.155	-3.050	29.04
175801	0.152	-3.280	29.08
175901	0.148	-2.820	29.08
176001	0.157	-3.305	29.10
176101	0.148	-3.260	29.12
176201	0.156	-2.855	29.14
176300	0.148	-3.760	29.14
176401	0.149	-3.295	29.18
176501	0.148	-3.080	29.20
176602	0.150	-3.650	29.20
176701	0.149	-3.255	29.22
176801	0.148	-3.345	29.22
176901	0.148	-3.575	29.26
177002	0.145	-3.050	29.28
177102	0.151	-3.380	29.28
177202	0.150	-3.675	29.30
177302	0.152	-2.855	29.32
177401	0.151	-3.745	29.32
177502	0.150	-3.275	29.36
177601	0.149	-3.070	29.38
177702	0.151	-3.630	29.38
177800	0.148	-2.790	29.40
177900	0.150	-3.325	29.42
178002	0.147	-3.580	29.42
178101	0.153	-2.685	29.46
178201	0.148	-3.190	29.48
178301	0.149	-3.140	29.48
178400	0.150	-3.205	29.50
178501	0.149	-3.235	29.50
178601	0.149	-3.185	29.54
178701	0.151	-3.260	29.56
178800	0.152	-3.465	29.56
178901	0.154	-2.800	29.58
179001	0.150	-3.285	29.60
179101	0.150	-3.515	29.60
179200	0.149	-2.915	29.64
179302	0.150	-3.335	29.66
179402	0.151	-3.675	29.66
179501	0.154	-2.890	29.68
179600	0.152	-3.740	29.70
179701	0.151	-3.310	29.70
179801	0.151	-3.385	29.74
179900	0.151	-3.805	29.76
180001	0.147	-2.990	29.76
180101	0.153	-3.345	29.78
180201	0.152	-3.550	29.80
180301	0.154	-2.875	29.80
180400	0.165	-3.835	29.84
180501	0.166	-3.345	29.86
180602	0.159	-2.845	29.88
180700	0.165	-3.655	29.88
180800	0.160	-2.745	29.92
180901	0.160	-3.225	29.94
181001	0.162	-3.670	29.94
181101	0.163	-2.920	29.96
181202	0.159	-3.285	29.98
181300	0.160	-3.250	29.98
181402	0.154	-2.935	30.02
181501	0.166	-3.695	30.04
181602	0.168	-3.310	30.04
181701	0.169	-2.965	30.06
181800	0.169	-3.800	30.08
181901	0.168	-2.985	30.08
182000	0.165	-3.405	30.12
182100	0.165	-3.820	30.14
182202	0.164	-3.360	30.14
182302	0.167	-3.420	30.16
182401	0.168	-3.760	30.16
182501	0.165	-2.945	30.20
182600	0.165	-3.860	30.22
182702	0.148	-3.650	30.22
182801	0.145	-2.920	30.24
182900	0.148	-3.785	30.26
183003	0.145	-3.795	30.26
183100	0.145	-3.420	30.30
183201	0.144	-3.875	30.32
183300	0.147	-2.955	30.32
183402	0.149	-3.070	30.34
183501	0.145	-3.405	30.36
183600	0.146	-3.075	30.36
183700	0.146	-3.775	30.40
183801	0.145	-3.310	30.42
183901	0.146	-3.380	30.42
184000	0.145	-3.845	30.44
184101	0.148	-3.355	30.46
184202	0.147	-3.125	30.46
184302	0.145	-3.880	30.50
184401	0.145	-3.145	30.50
184501	0.150	-3.475	30.52
184602	0.144	-3.880	30.54
184700	0.146	-2.990	30.54
184801	0.146	-3.765	30.58
184901	0.148	-3.440	30.60
185002	0.145	-3.045	30.60
185102	0.147	-3.855	30.62
185201	0.145	-3.120	30.64
185300	0.145	-3.060	30.64
185400	0.147	-3.790	30.68
185501	0.148	-3.060	30.70
185602	0.147	-3.520	30.70
185701	0.147	-3.480	30.72
185801	0.151	-3.060	30.74
185900	0.148	-3.985	30.74
186002	0.148	-3.870	30.78
186102	0.150	-3.060	30.78
186200	0.150	-3.925	30.80
186301	0.152	-3.495	30.82
186401	0.150	-3.555	30.82
186501	0.147	-4.010	30.86
186602	0.149	-3.280	30.88
186700	0.148	-3.890	30.88
186801	0.145	-3.840	30.90
186902	0.149	-3.120	30.92
187001	0.148	-3.840	30.92
187102	0.146	-3.950	30.96
187202	0.148	-3.110	30.98
187301	0.147	-3.845	30.98
187401	0.147	-3.535	31.00
187501	0.148	-3.360	31.02
187601	0.150	-4.050	31.02
187701	0.151	-3.230	31.06
187801	0.149	-3.620	31.08
187901	0.150	-3.940	31.08
188001	0.149	-3.160	31.10
188100	0.149	-4.030	31.10
188202	0.151	-4.000	31.14
188302	0.147	-3.220	31.16
188400	0.149	-4.000	31.16
188501	0.144	-3.540	31.18
188600	0.147	-3.620	31.20
188701	0.148	-3.635	31.20
188800	0.149	-3.135	31.24
188901	0.148	-3.210	31.26
189000	0.155	-3.565	31.26
189102	0.147	-3.155	31.28
189200	0.148	-4.090	31.30
189300	0.149	-3.285	31.30
189402	0.147	-3.155	31.34
189501	0.148	-3.845	31.36
189600	0.149	-3.185	31.36
189701	0.148	-3.590	31.38
189801	0.146	-4.055	31.40
189901	0.150	-3.560	31.40
190000	0.143	-3.975	31.44
190101	0.149	-4.075	31.44
190201	0.150	-3.150	31.46
190301	0.141	-3.665	31.48
190401	0.150	-3.915	31.52
190501	0.144	-3.265	31.52
190602	0.149	-3.670	31.54
190700	0.151	-3.620	31.56
190801	0.151	-3.670	31.56
190902	0.149	-4.050	31.58
191001	0.149	-3.630	31.62
191100	0.147	-3.980	31.62
191200	0.148	-3.660	31.64
191302	0.150	-3.060	31.66
191401	0.150	-3.400	31.68
191500	0.151	-3.030	31.68
191601	0.149	-3.055	31.72
191701	0.148	-3.850	31.74
191801	0.148	-3.425	31.74
191901	0.148	-3.495	31.76
192001	0.148	-3.825	31.76
192100	0.148	-3.050	31.80
192201	0.150	-3.570	31.82
192301	0.147	-3.750	31.82
192402	0.150	-3.065	31.84
192502	0.149	-3.570	31.86
192601	0.150	-3.600	31.86
192701	0.149	-3.595	31.90
192800	0.147	-3.940	31.92
192901	0.148	-3.565	31.92
193002	0.148	-3.230	31.94
193100	0.148	-3.865	31.96
193201	0.149	-3.330	31.96
193301	0.149	-3.675	32.00
193401	0.151	-4.045	32.02
193500	0.149	-3.335	32.02
193602	0.150	-3.690	32.04
193700	0.150	-3.335	32.04
193801	0.147	-3.215	32.08
193902	0.149	-3.685	32.10
194002	0.148	-3.635	32.10
194100	0.150	-3.705	32.12
194200	0.149	-3.950	32.14
194302	0.149	-3.650	32.14
194401	0.151	-3.980	32.18
194501	0.153	-4.120	32.20
194602	0.153	-3.675	32.20
194702	0.151	-3.735	32.22
194801	0.150	-3.675	32.24
194901	0.150	-3.190	32.24
195000	0.153	-4.100	32.28
195101	0.153	-3.280	32.30
195200	0.152	-3.715	32.30
195300	0.151	-4.190	32.32
195402	0.153	-3.670	32.34
195502	0.151	-3.295	32.34
195602	0.149	-4.165	32.38
195700	0.151	-3.185	32.38
195801	0.151	-4.065	32.40
195902	0.148	-3.965	32.42
196000	0.153	-3.305	32.42
196101	0.148	-4.200	32.46
196201	0.149	-3.680	32.48
196300	0.151	-3.765	32.48
196401	0.151	-4.190	32.50
196500	0.151	-3.265	32.52
196601	0.153	-3.780	32.52
196700	0.151	-4.000	32.56
196800	0.149	-3.330	32.58
196900	0.153	-4.195	32.58
197002	0.151	-4.060	32.60
197101	0.144	-3.285	32.62
197200	0.161	-4.210	32.62
197301	0.154	-3.730	32.66
197402	0.152	-3.375	32.68
197501	0.152	-4.230	32.68
197600	0.152	-3.325	32.70
197701	0.152	-3.795	32.70
197800	0.152	-3.750	32.74
197900	0.152	-3.440	32.76
198000	0.150	-4.265	32.76
198101	0.154	-4.110	32.78
198202	0.153	-3.315	32.80
198300	0.154	-4.225	32.80
198400	0.152	-3.355	32.84
198501	0.148	-3.340	32.86
198602	0.152	-4.255	32.86
198701	0.151	-3.780	32.88
198801	0.154	-3.850	32.90
198901	0.157	-3.755	32.90
199001	0.152	-3.385	32.94
199101	0.151	-3.815	32.96
199202	0.154	-4.095	32.96
199301	0.151	-3.310	32.98
199400	0.149	-4.225	33.00
199501	0.150	-3.735	33.00
199601	0.151	-3.795	33.04
199700	0.152	-4.095	33.04
199801	0.152	-4.100	33.06
199901	0.152	-3.845	33.08
200002	0.151	-4.275	33.08
200101	0.152	-3.355	33.12
200201	0.153	-4.175	33.14
200301	0.149	-4.130	33.14
200401	0.150	-3.550	33.16
200500	0.150	-4.265	33.18
200600	0.149	-3.825	33.18
200701	0.149	-3.890	33.22
200801	0.150	-3.915	33.24
200900	0.143	-3.395	33.24
201002	0.151	-3.400	33.26
201102	0.149	-4.295	33.28
201202	0.150	-3.525	33.28
201301	0.149	-3.900	33.32
201400	0.152	-3.825	33.32
201502	0.150	-3.470	33.34
201602	0.150	-3.925	33.36
201701	0.150	-3.855	33.40
201801	0.150	-3.555	33.40
201900	0.150	-4.235	33.42
202000	0.152	-3.500	33.44
202102	0.147	-3.640	33.44
202200	0.150	-4.135	33.46
202302	0.149	-3.880	33.50
202402	0.150	-3.940	33.50
202502	0.151	-4.195	33.52
202600	0.150	-3.715	33.54
202701	0.149	-4.330	33.56
202802	0.150	-3.915	33.56
202900	0.148	-3.965	33.60
203001	0.157	-4.400	33.62
203101	0.153	-3.670	33.62
203201	0.149	-3.985	33.64
203300	0.150	-3.940	33.64
203400	0.149	-3.580	33.68
203500	0.150	-4.375	33.70
203601	0.151	-3.945	33.70
203701	0.149	-3.610	33.72
203802	0.152	-4.345	33.74
203900	0.156	-3.505	33.74
204001	0.155	-3.945	33.78
204101	0.150	-4.360	33.80
204201	0.152	-3.615	33.80
204301	0.149	-4.005	33.82
204401	0.149	-4.435	33.84
204501	0.151	-3.580	33.84
204601	0.152	-3.995	33.88
204702	0.150	-4.430	33.90
204802	0.149	-3.525	33.90
204901	0.150	-4.390	33.92
205001	0.151	-4.260	33.94
205101	0.152	-3.680	33.94
205202	0.147	-3.960	33.98
205300	0.152	-3.125	33.98
205400	0.154	-4.000	34.00
205501	0.150	-4.000	34.02
205601	0.148	-3.280	34.02
205702	0.152	-3.665	34.06
205801	0.150	-3.640	34.08
205900	0.142	-3.690	34.08
206001	0.151	-4.090	34.10
206100	0.151	-3.270	34.12
206202	0.142	-3.330	34.12
206302	0.149	-4.200	34.16
206401	0.149	-3.960	34.18
206500	0.149	-4.145	34.18
206601	0.158	-3.770	34.20
206702	0.151	-3.430	34.22
206800	0.149	-4.305	34.22
206901	0.150	-3.810	34.26
207001	0.150	-3.540	34.28
207101	0.153	-3.910	34.28
207200	0.150	-3.440	34.30
207301	0.151	-3.585	34.30
207402	0.148	-4.390	34.34
207500	0.147	-3.440	34.36
207600	0.150	-4.275	34.36
207702	0.149	-4.415	34.38
207801	0.150	-3.490	34.40
207900	0.151	-4.430	34.40
208001	0.149	-3.935	34.44
208102	0.149	-3.450	34.46
208201	0.155	-4.435	34.46
208301	0.148	-3.950	34.48
208401	0.166	-4.010	34.50
208501	0.152	-4.430	34.54
208602	0.153	-3.965	34.54
208701	0.152	-4.020	34.56
208801	0.150	-4.430	34.58
208903	0.150	-4.225	34.58
209000	0.150	-4.510	34.62
209101	0.148	-4.010	34.64
209201	0.152	-3.580	34.64
209302	0.150	-4.020	34.66
209402	0.149	-3.965	34.68
209501	0.151	-3.765	34.68
209600	0.150	-4.265	34.72
209701	0.151	-3.615	34.72
209800	0.151	-4.305	34.74
209901	0.151	-4.370	34.76
210001	0.151	-3.510	34.76
210102	0.153	-4.010	34.78
210200	0.151	-3.960	34.78
210301	0.152	-3.590	34.82
210402	0.150	-4.375	34.84
210501	0.151	-4.000	34.84
210601	0.153	-4.055	34.86
210702	0.150	-4.380	34.88
210801	0.153	-3.980	34.88
210900	0.151	-4.070	34.92
211000	0.149	-4.020	34.94
211101	0.151	-3.665	34.94
211202	0.151	-4.045	34.96
211301	0.152	-4.330	35.00
211400	0.153	-3.805	35.02
211501	0.150	-4.480	35.02
211601	0.152	-4.035	35.04
211701	0.152	-3.675	35.04
211800	0.152	-4.385	35.06
211902	0.154	-4.015	35.10
212000	0.151	-4.090	35.10
212100	0.151	-4.040	35.12
212201	0.150	-3.640	35.14
212302	0.152	-4.060	35.14
212400	0.154	-4.015	35.16
212500	0.154	-3.795	35.20
212600	0.152	-4.485	35.20
212701	0.154	-4.015	35.22
212800	0.152	-4.095	35.24
212901	0.153	-4.560	35.24
213001	0.152	-3.765	35.28
213102	0.148	-4.125	35.30
213201	0.153	-4.575	35.30
213301	0.153	-3.715	35.32
213401	0.155	-4.400	35.34
213502	0.152	-4.545	35.34
213601	0.153	-3.700	35.38
213700	0.153	-4.585	35.40
213800	0.151	-3.650	35.40
213901	0.152	-3.830	35.42
214002	0.154	-4.160	35.44
214101	0.154	-3.795	35.44
214201	0.152	-4.170	35.48
214302	0.152	-4.555	35.50
214402	0.151	-3.800	35.50
214501	0.153	-4.160	35.52
214601	0.152	-4.130	35.54
214701	0.153	-3.770	35.54
214800	0.153	-4.575	35.58
214900	0.146	-3.810	35.58
215002	0.151	-3.760	35.60
215102	0.153	-4.535	35.62
215201	0.153	-4.160	35.62
215301	0.153	-4.210	35.66
215402	0.153	-4.460	35.68
215501	0.153	-3.890	35.68
215601	0.152	-4.235	35.70
215700	0.154	-4.175	35.72
215802	0.152	-3.830	35.72
215900	0.154	-4.630	35.76
216000	0.153	-4.185	35.78
216101	0.157	-4.015	35.78
216202	0.152	-4.680	35.80
216300	0.154	-3.840	35.82
216400	0.150	-4.295	35.82
216502	0.154	-4.585	35.86
216601	0.155	-3.785	35.86
216701	0.153	-4.310	35.88
216801	0.150	-4.260	35.90
216902	0.154	-3.825	35.90
217002	0.157	-4.325	35.94
217100	0.149	-4.260	35.96
217202	0.151	-3.825	35.98
217301	0.151	-4.785	35.98
217402	0.151	-4.275	36.00
217500	0.150	-4.355	36.00
217602	0.152	-4.800	36.04
217701	0.150	-3.850	36.06
217802	0.150	-4.360	36.06
217901	0.151	-4.320	36.08
218002	0.151	-3.860	36.10
218101	0.151	-4.380	36.10
218200	0.149	-4.315	36.14
218301	0.154	-3.880	36.16
218400	0.154	-4.645	36.16
218500	0.149	-3.900	36.18
218601	0.152	-4.380	36.22
218702	0.150	-4.715	36.22
218801	0.151	-3.940	36.24
218902	0.150	-4.115	36.26
219000	0.150	-4.370	36.26
219101	0.150	-3.920	36.28
219202	0.148	-4.435	36.28
219300	0.148	-4.055	36.32
219401	0.150	-4.090	36.34
219502	0.151	-4.725	36.34
219601	0.150	-4.735	36.36
219701	0.152	-4.415	36.38
219802	0.151	-4.790	36.42
219902	0.150	-3.975	36.42
220000	0.154	-4.875	36.44
220102	0.150	-4.790	36.46
220201	0.154	-4.110	36.46
220300	0.153	-4.815	36.48
220400	0.153	-3.955	36.52
220501	0.154	-4.045	36.52
220601	0.163	-4.845	36.54
220700	0.152	-3.935	36.56
220801	0.151	-4.440	36.56
220901	0.152	-4.575	36.60
221001	0.152	-3.930	36.62
221100	0.151	-4.820	36.62
221201	0.152	-4.820	36.64
221301	0.153	-4.020	36.66
221402	0.151	-4.450	36.66
221501	0.152	-4.370	36.70
221601	0.152	-4.160	36.72
221702	0.149	-4.850	36.72
221801	0.153	-4.015	36.74
221901	0.150	-4.470	36.74
222000	0.154	-4.430	36.76
222101	0.152	-4.015	36.80
222201	0.151	-4.795	36.80
222301	0.153	-4.425	36.82
222400	0.151	-4.185	36.84
222500	0.149	-4.880	36.84
222600	0.154	-4.080	36.88
222702	0.152	-4.225	36.90
222801	0.151	-4.865	36.90
222901	0.150	-4.465	36.92
223001	0.150	-4.180	36.94
223100	0.150	-4.830	36.94
223200	0.152	-4.085	36.98
223302	0.151	-4.270	37.00
223402	0.150	-4.940	37.00
223502	0.152	-4.050	37.02
223601	0.152	-4.865	37.04
223702	0.152	-4.860	37.04
223802	0.152	-4.125	37.08
223902	0.152	-4.935	37.10
224001	0.151	-4.505	37.10
224101	0.152	-4.575	37.12
224202	0.154	-4.590	37.12
224300	0.151	-4.120	37.16
224400	0.150	-4.905	37.18
224501	0.150	-4.900	37.18
224600	0.154	-4.270	37.20
224700	0.153	-4.945	37.22
224801	0.148	-4.555	37.22
224901	0.152	-4.280	37.26
225000	0.153	-4.925	37.28
225101	0.159	-4.550	37.28
225201	0.156	-4.180	37.30
225301	0.154	-4.690	37.32
225401	0.163	-4.420	37.32
225501	0.163	-4.505	37.36
225602	0.158	-4.850	37.38
225702	0.158	-4.080	37.38
225801	0.157	-4.940	37.40
225900	0.156	-4.215	37.42
226001	0.155	-4.210	37.42
226101	0.156	-4.955	37.46
226202	0.152	-4.535	37.46
226300	0.159	-4.605	37.48
226401	0.159	-4.915	37.50
226501	0.161	-4.300	37.50
226601	0.158	-4.620	37.54
226700	0.159	-4.485	37.56
226801	0.159	-4.080	37.56
226902	0.162	-4.500	37.58
227000	0.160	-4.460	37.60
227102	0.159	-4.125	37.60
227202	0.160	-4.860	37.64
227300	0.162	-4.180	37.66
227401	0.160	-4.585	37.66
227501	0.157	-4.865	37.68
227601	0.158	-4.125	37.70
227702	0.155	-4.595	37.70
227801	0.156	-5.000	37.74
227902	0.161	-4.170	37.76
228002	0.161	-4.635	37.76
228100	0.159	-4.555	37.78
228201	0.163	-4.250	37.82
228301	0.149	-4.855	37.82
228401	0.147	-4.150	37.84
228501	0.163	-4.310	37.86
228601	0.156	-5.045	37.86
228702	0.156	-4.585	37.88
228802	0.157	-4.645	37.92
228900	0.156	-4.595	37.92
229002	0.155	-4.380	37.94
229101	0.156	-4.680	37.96
229201	0.151	-4.630	37.98
229302	0.154	-4.350	37.98
229401	0.155	-5.095	38.02
229501	0.155	-4.600	38.04
229601	0.155	-4.680	38.04
229701	0.156	-4.980	38.06
229801	0.154	-4.120	38.06
229900	0.158	-4.950	38.08
230001	0.153	-5.065	38.12
230101	0.154	-4.150	38.12
230202	0.153	-4.665	38.14
230301	0.153	-4.605	38.16
230401	0.155	-4.210	38.16
230500	0.155	-5.080	38.20
230601	0.151	-4.355	38.22
230701	0.155	-4.700	38.22
230800	0.155	-4.915	38.24
230902	0.153	-4.620	38.26
231001	0.153	-4.985	38.26
231102	0.155	-5.090	38.30
231201	0.153	-4.195	38.32
231302	0.157	-4.730	38.32
231401	0.156	-5.070	38.34
231500	0.153	-4.730	38.36
231601	0.154	-5.110	38.36
231702	0.153	-4.975	38.40
231802	0.155	-4.315	38.40
231901	0.154	-5.165	38.42
232000	0.155	-4.350	38.44
232101	0.152	-4.785	38.44
232201	0.148	-4.700	38.48
232302	0.154	-4.270	38.50
232402	0.153	-4.785	38.50
232501	0.156	-4.720	38.52
232602	0.153	-4.410	38.54
232702	0.155	-5.115	38.54
232800	0.156	-4.320	38.58
232901	0.151	-4.805	38.60
233000	0.155	-4.755	38.60
233101	0.160	-4.465	38.62
233202	0.156	-4.815	38.64
233301	0.155	-4.770	38.64
233401	0.156	-4.360	38.68
233501	0.155	-5.205	38.70
233602	0.157	-4.810	38.70
233702	0.154	-4.465	38.72
233801	0.154	-5.240	38.72
233901	0.152	-4.805	38.76
234001	0.154	-4.875	38.78
234102	0.155	-5.250	38.78
234200	0.156	-4.455	38.80
234302	0.135	-4.890	38.82
234402	0.154	-5.270	38.82
234501	0.155	-4.410	38.86
234601	0.156	-5.265	38.88
234702	0.167	-5.185	38.88
234802	0.154	-4.440	38.90
234900	0.153	-5.325	38.92
235001	0.153	-4.855	38.92
235101	0.155	-4.925	38.96
235201	0.152	-5.160	38.98
235301	0.156	-4.550	38.98
235400	0.151	-5.240	39.00
235502	0.150	-5.295	39.02
235602	0.153	-4.465	39.02
235700	0.152	-5.305	39.06
235800	0.147	-4.580	39.06
235901	0.153	-4.700	39.08
236001	0.154	-5.320	39.10
236102	0.153	-4.890	39.10
236200	0.153	-4.955	39.14
236301	0.151	-5.215	39.16
236401	0.153	-4.625	39.16
236501	0.154	-4.965	39.18
236600	0.151	-4.920	39.20
236701	0.157	-4.580	39.20
236801	0.154	-4.980	39.24
236901	0.154	-4.935	39.26
237001	0.155	-4.620	39.26
237102	0.159	-5.000	39.28
237202	0.156	-4.960	39.30
237300	0.156	-5.005	39.30
237402	0.154	-5.025	39.34
237501	0.155	-4.960	39.36
237600	0.155	-5.325	39.36
237702	0.157	-5.380	39.38
237801	0.157	-4.650	39.38
237900	0.154	-5.375	39.42
238001	0.155	-5.000	39.44
238102	0.157	-4.665	39.46
238200	0.157	-5.420	39.46
238300	0.154	-4.650	39.48
238401	0.154	-5.070	39.52
238501	0.154	-5.085	39.54
238600	0.157	-4.675	39.54
238701	0.155	-5.085	39.56
238801	0.154	-5.330	39.56
238901	0.154	-4.725	39.58
239000	0.157	-5.370	39.62
239101	0.156	-5.045	39.64
239201	0.154	-4.670	39.64
239302	0.157	-5.110	39.66
239401	0.155	-5.050	39.66
239501	0.157	-5.100	39.70
239601	0.156	-5.485	39.72
239701	0.153	-4.765	39.72
239802	0.159	-5.125	39.74
239900	0.160	-5.080	39.76
240002	0.156	-5.085	39.76
240102	0.155	-5.150	39.80
240201	0.156	-5.380	39.82
240300	0.157	-5.150	39.82
240401	0.155	-5.180	39.84
240502	0.155	-5.140	39.86
240600	0.156	-5.185	39.86
240700	0.158	-5.490	39.90
240801	0.155	-4.735	39.92
240902	0.158	-5.185	39.92
241000	0.159	-5.000	39.94
241100	0.159	-5.050	39.96
241201	0.158	-5.390	39.96
241300	0.158	-4.785	40.00
241400	0.158	-5.105	40.00
241501	0.162	-5.520	40.02
241602	0.153	-5.110	40.04
241702	0.159	-4.715	40.04
241800	0.161	-5.475	40.08
241901	0.168	-4.710	40.10
242001	0.169	-5.395	40.10
242100	0.163	-5.515	40.12
242201	0.158	-4.745	40.14
242301	0.160	-5.440	40.14
242401	0.162	-5.130	40.18
242500	0.163	-5.185	40.20
242602	0.162	-5.210	40.20
242702	0.160	-5.155	40.22
242802	0.164	-4.935	40.24
242901	0.161	-5.610	40.24
243001	0.165	-4.880	40.28
243101	0.160	-5.240	40.30
243200	0.161	-5.460	40.30
243301	0.162	-4.790	40.32
243402	0.162	-5.220	40.32
243500	0.157	-5.135	40.36
243601	0.162	-4.770	40.38
243702	0.161	-5.240	40.38
243801	0.161	-4.920	40.40
243900	0.160	-5.265	40.42
244002	0.159	-5.615	40.42
244102	0.162	-5.210	40.46
244200	0.160	-5.550	40.48
244301	0.163	-5.615	40.48
244401	0.162	-4.805	40.50
244501	0.165	-5.600	40.52
244600	0.162	-5.210	40.52
244700	0.163	-5.270	40.56
244801	0.161	-5.660	40.58
244901	0.163	-4.975	40.58
245000	0.161	-5.210	40.60
245101	0.161	-5.600	40.62
245201	0.161	-4.890	40.62
245302	0.162	-5.245	40.66
245401	0.165	-5.470	40.66
245502	0.162	-4.935	40.68
245601	0.164	-5.650	40.70
245700	0.164	-5.240	40.70
245801	0.164	-5.005	40.74
245901	0.164	-5.655	40.76
246001	0.161	-4.975	40.76
246100	0.164	-5.330	40.78
246201	0.162	-5.680	40.80
246302	0.166	-5.280	40.80
246402	0.156	-5.315	40.84
246501	0.168	-5.290	40.86
246601	0.164	-4.860	40.86
246701	0.156	-5.600	40.88
246801	0.165	-5.280	40.90
246901	0.165	-4.915	40.90
247002	0.166	-5.335	40.94
247102	0.164	-5.300	40.94
247200	0.165	-5.355	40.96
247301	0.164	-5.670	40.98
247401	0.163	-4.990	40.98
247501	0.167	-5.365	41.02
247600	0.164	-5.330	41.04
247702	0.164	-5.045	41.04
247800	0.165	-5.745	41.06
247900	0.165	-5.325	41.08
248002	0.164	-4.985	41.08
248101	0.166	-5.760	41.12
248200	0.164	-4.890	41.14
248300	0.167	-5.305	41.14
248402	0.168	-5.580	41.16
248502	0.168	-5.280	41.18
248601	0.164	-5.345	41.18
248701	0.167	-5.680	41.22
248801	0.170	-4.985	41.24
248900	0.164	-5.695	41.24
249000	0.169	-5.330	41.26
249100	0.172	-5.385	41.26
249201	0.164	-5.745	41.30
249301	0.162	-5.325	41.32
249401	0.161	-5.350	41.32
249502	0.161	-5.660	41.34
249602	0.166	-5.340	41.36
249701	0.163	-5.400	41.36
249801	0.160	-5.370	41.40
249901	0.166	-5.000	41.42
250002	0.166	-5.415	41.42
250100	0.161	-5.370	41.44
250201	0.168	-5.070	41.46
250301	0.164	-5.675	41.50
250402	0.167	-5.795	41.50
250501	0.165	-5.135	41.52
250601	0.165	-5.790	41.54
250702	0.169	-5.385	41.54
250802	0.163	-5.430	41.56
250900	0.164	-5.405	41.56
251002	0.168	-5.105	41.60
251102	0.168	-5.455	41.62
251201	0.168	-5.395	41.64
251301	0.166	-5.145	41.64
251401	0.167	-5.740	41.68
251502	0.168	-5.370	41.70
251600	0.165	-5.440	41.70
251700	0.166	-5.415	41.72
251801	0.168	-5.075	41.74
251902	0.170	-5.465	41.74
252000	0.173	-5.430	41.78
252102	0.170	-5.095	41.80
252201	0.171	-5.490	41.80
252302	0.170	-5.680	41.82
252401	0.167	-5.075	41.84
252501	0.167	-5.755	41.84
252601	0.150	-5.435	41.88
252701	0.167	-5.510	41.90
252800	0.159	-5.705	41.90
252900	0.162	-5.115	41.92
253002	0.168	-5.110	41.92
253102	0.165	-5.780	41.96
253200	0.166	-5.145	41.98
253302	0.169	-5.550	41.98
253401	0.171	-5.515	42.00
253501	0.168	-5.555	42.02
253601	0.169	-5.925	42.02
253702	0.167	-5.875	42.06
253802	0.165	-5.225	42.08
253900	0.168	-5.565	42.08
254001	0.167	-5.315	42.10
254101	0.170	-5.605	42.12
254202	0.164	-5.610	42.12
254300	0.167	-5.275	42.16
254402	0.165	-5.620	42.18
254502	0.163	-5.980	42.18
254602	0.165	-5.220	42.20
254700	0.164	-5.990	42.20
254802	0.166	-5.560	42.24
254902	0.164	-5.215	42.26
255002	0.163	-5.985	42.26
255102	0.163	-5.565	42.28
255201	0.165	-5.635	42.30
255301	0.165	-5.595	42.30
255400	0.166	-5.335	42.34
255501	0.164	-5.660	42.36
255601	0.163	-5.875	42.36
255702	0.165	-5.280	42.38
255801	0.154	-5.950	42.40
255900	0.161	-5.305	42.40
256000	0.163	-5.690	42.44
256102	0.162	-6.050	42.46
256201	0.162	-5.275	42.46
256301	0.157	-5.690	42.48
256400	0.164	-5.635	42.50
256501	0.164	-5.255	42.50
256601	0.170	-5.970	42.54
256701	0.166	-5.860	42.54
256802	0.168	-5.265	42.56
256902	0.167	-5.680	42.58
257001	0.168	-5.640	42.58
257100	0.169	-5.705	42.62
257202	0.168	-6.045	42.64
257302	0.169	-5.650	42.64
257401	0.167	-5.675	42.66
257501	0.169	-5.650	42.68
257601	0.167	-5.295	42.68
257701	0.165	-6.050	42.72
257800	0.165	-5.660	42.74
257901	0.171	-5.475	42.74
258002	0.164	-6.045	42.76
258101	0.165	-5.680	42.78
258201	0.164	-5.720	42.78
258301	0.168	-5.740	42.82
258402	0.166	-5.700	42.84
258501	0.170	-5.755	42.84
258601	0.162	-5.740	42.86
258701	0.164	-5.435	42.86
258801	0.163	-5.795	42.90
258900	0.164	-5.730	42.92
259001	0.163	-5.465	42.92
259102	0.170	-5.785	42.94
259202	0.162	-5.705	42.96
259301	0.165	-5.755	42.96
259401	0.162	-6.095	43.00
259501	0.161	-5.360	43.02
259600	0.165	-6.050	43.02
259700	0.166	-5.740	43.04
259802	0.164	-5.490	43.06
259902	0.161	-5.800	43.06
260001	0.158	-5.780	43.10
260100	0.159	-5.800	43.12
260202	0.163	-5.835	43.12
260301	0.163	-5.560	43.14
260401	0.165	-5.530	43.16
260501	0.165	-6.135	43.16
260601	0.164	-5.505	43.20
260701	0.167	-5.865	43.20
260800	0.164	-6.185	43.22
260902	0.161	-5.815	43.24
261002	0.163	-5.880	43.24
261101	0.163	-6.130	43.28
261201	0.163	-5.535	43.30
261302	0.164	-5.905	43.30
261402	0.160	-5.845	43.32
261501	0.163	-5.875	43.34
261600	0.164	-6.125	43.34
261701	0.159	-5.810	43.38
261802	0.163	-5.860	43.40
261901	0.164	-5.855	43.40
262001	0.162	-5.575	43.42
262102	0.166	-5.880	43.44
262201	0.161	-5.875	43.44
262300	0.163	-5.910	43.48
262400	0.155	-6.205	43.50
262500	0.160	-5.660	43.50
262602	0.177	-5.800	43.52
262702	0.160	-6.180	43.56
262801	0.160	-5.525	43.56
262902	0.161	-5.855	43.58
263001	0.158	-5.840	43.60
263100	0.160	-5.565	43.60
263200	0.157	-6.175	43.62
263301	0.158	-5.860	43.66
263402	0.158	-5.540	43.66
263501	0.158	-6.220	43.68
263600	0.158	-5.570	43.70
263702	0.157	-5.615	43.72
263800	0.161	-5.905	43.72
263901	0.157	-5.605	43.76
264000	0.159	-6.220	43.76
264102	0.159	-6.260	43.78
264202	0.154	-5.605	43.80
264300	0.157	-6.295	43.80
264400	0.156	-5.575	43.84
264501	0.158	-5.960	43.86
264600	0.156	-6.275	43.86
264700	0.160	-5.565	43.88
264801	0.157	-5.650	43.90
264901	0.159	-5.990	43.90
265002	0.157	-5.910	43.94
265101	0.162	-5.955	43.96
265201	0.157	-6.210	43.96
265302	0.159	-5.585	43.98
265402	0.157	-5.980	44.00
265500	0.159	-5.930	44.00
265601	0.155	-5.685	44.04
265702	0.157	-6.010	44.06
265802	0.156	-5.965	44.06
265902	0.150	-5.675	44.08
266001	0.156	-6.355	44.10
266101	0.155	-5.975	44.10
266202	0.155	-5.690	44.14
266302	0.156	-6.365	44.14
266400	0.154	-5.665	44.16
266500	0.159	-6.330	44.18
266602	0.156	-6.255	44.18
266701	0.157	-5.740	44.22
266801	0.155	-6.260	44.24
266901	0.157	-5.985	44.24
267001	0.158	-6.035	44.26
267101	0.153	-6.270	44.28
267200	0.157	-5.685	44.28
267300	0.157	-6.075	44.32
267401	0.159	-6.330	44.34
267502	0.156	-5.695	44.34
267601	0.160	-6.080	44.36
267702	0.158	-6.405	44.38
267802	0.156	-5.735	44.38
267901	0.157	-6.075	44.42
268000	0.158	-5.690	44.44
268101	0.156	-5.710	44.44
268201	0.157	-6.350	44.46
268301	0.157	-5.725	44.46
268401	0.158	-6.070	44.50
268500	0.156	-6.320	44.52
268600	0.157	-5.825	44.52
268701	0.154	-6.355	44.54
268801	0.157	-6.045	44.56
268901	0.162	-5.775	44.56
269001	0.159	-6.415	44.60
269102	0.158	-6.085	44.62
269202	0.157	-5.835	44.62
269300	0.159	-6.415	44.64
269401	0.158	-5.840	44.66
269502	0.158	-6.140	44.66
269601	0.156	-6.490	44.70
269701	0.157	-5.750	44.72
269801	0.158	-6.115	44.72
269901	0.159	-6.030	44.74
270000	0.158	-6.080	44.74
270101	0.159	-6.450	44.78
270202	0.158	-6.090	44.80
270302	0.160	-5.805	44.80
270402	0.165	-6.450	44.82
270502	0.161	-6.085	44.84
270601	0.161	-6.145	44.84
270702	0.158	-6.420	44.88
270801	0.161	-5.810	44.90
270902	0.160	-6.155	44.90
271001	0.165	-6.125	44.92
271101	0.161	-5.855	44.94
271201	0.164	-6.445	44.94
271301	0.160	-6.120	44.98
271401	0.157	-6.175	45.00
271501	0.161	-6.475	45.00
271601	0.158	-6.145	45.02
271701	0.157	-6.210	45.04
271800	0.164	-6.450	45.04
271900	0.157	-5.955	45.08
272001	0.158	-6.235	45.08
272102	0.158	-6.485	45.10
272202	0.158	-5.935	45.12
272300	0.159	-6.510	45.12
272400	0.157	-6.215	45.16
272501	0.158	-6.265	45.18
272601	0.156	-6.575	45.18
272701	0.155	-5.990	45.20
272802	0.155	-6.270	45.22
272902	0.156	-6.590	45.22
273001	0.157	-5.960	45.26
273102	0.153	-6.295	45.28
273201	0.153	-6.295	45.28
273302	0.157	-6.035	45.30
273401	0.151	-6.340	45.32
273501	0.153	-6.305	45.32
273602	0.155	-6.010	45.36
273700	0.154	-6.435	45.38
273800	0.156	-5.900	45.38
273901	0.151	-6.235	45.40
274000	0.156	-6.245	45.40
274102	0.154	-5.960	45.44
274200	0.151	-6.595	45.46
274301	0.153	-6.280	45.48
274400	0.153	-6.065	45.48
274501	0.154	-6.580	45.50
274601	0.148	-6.265	45.54
274701	0.154	-6.310	45.54
274801	0.157	-6.620	45.56
274901	0.154	-6.035	45.58
275001	0.155	-6.330	45.60
275102	0.153	-6.635	45.60
275200	0.153	-6.020	45.64
275301	0.153	-6.345	45.66
275400	0.152	-6.305	45.66
275501	0.156	-6.350	45.68
275601	0.153	-6.685	45.70
275700	0.157	-6.350	45.70
275802	0.156	-6.090	45.74
275902	0.157	-6.695	45.74
276001	0.154	-6.340	45.76
276100	0.153	-6.600	45.78
276201	0.155	-6.345	45.78
276301	0.156	-6.055	45.82
276400	0.156	-6.660	45.84
276500	0.154	-6.360	45.84
276600	0.155	-6.415	45.86
276702	0.155	-6.440	45.88
276800	0.157	-6.135	45.88
276902	0.156	-6.105	45.92
277001	0.155	-6.675	45.94
277102	0.149	-6.425	45.94
277201	0.147	-6.475	45.96
277300	0.154	-6.445	45.98
277401	0.157	-6.445	45.98
277500	0.148	-6.410	46.02
277601	0.155	-6.370	46.02
277701	0.154	-6.180	46.04
277801	0.155	-6.700	46.06
277900	0.155	-6.110	46.06
278001	0.150	-6.450	46.10
278101	0.155	-6.760	46.12
278202	0.156	-6.430	46.12
278302	0.155	-6.455	46.14
278400	0.154	-6.440	46.16
278502	0.154	-6.445	46.16
278602	0.155	-6.505	46.20
278701	0.150	-6.475	46.22
278802	0.155	-6.480	46.22
278902	0.156	-6.535	46.24
279002	0.155	-6.500	46.26
279100	0.159	-6.545	46.26
279201	0.158	-6.870	46.30
279302	0.155	-6.520	46.32
279400	0.158	-6.580	46.32
279502	0.156	-6.875	46.34
279600	0.158	-6.550	46.34
279701	0.158	-6.595	46.38
279801	0.152	-6.575	46.40
279900	0.158	-6.600	46.40
280001	0.157	-6.895	46.42
280101	0.161	-6.580	46.44
280200	0.157	-6.630	46.44
280300	0.157	-6.880	46.48
280402	0.152	-6.605	46.50
280501	0.158	-6.660	46.50
280601	0.158	-6.885	46.52
280701	0.158	-6.320	46.54
280802	0.158	-6.665	46.54
280902	0.160	-6.640	46.58
281001	0.157	-6.345	46.60
281101	0.157	-6.685	46.60
281202	0.161	-6.890	46.62
281300	0.157	-6.695	46.64
281401	0.158	-6.990	46.64
281502	0.158	-6.660	46.68
281602	0.158	-6.705	46.70
281701	0.157	-6.935	46.70
281800	0.159	-6.625	46.72
281902	0.158	-6.675	46.72
282001	0.158	-6.660	46.76
282100	0.159	-6.700	46.78
282201	0.159	-6.725	46.78
282301	0.159	-6.685	46.80
282402	0.159	-6.690	46.82
282501	0.160	-6.745	46.82
282600	0.161	-6.425	46.86
282701	0.160	-6.765	46.88
282801	0.156	-7.065	46.88
282901	0.159	-6.720	46.90
283001	0.158	-6.775	46.92
283101	0.158	-6.740	46.92
283200	0.155	-6.765	46.96
283300	0.157	-7.085	46.98
283402	0.156	-7.065	46.98
283502	0.159	-6.535	47.00
283600	0.158	-6.790	47.04
283701	0.158	-6.770	47.04
283802	0.157	-6.805	47.06
283901	0.158	-6.795	47.08
284000	0.160	-6.540	47.08
284101	0.157	-6.845	47.10
284202	0.157	-7.075	47.14
284302	0.156	-6.560	47.14
284400	0.157	-7.130	47.16
284500	0.156	-6.805	47.18
284602	0.157	-6.590	47.18
284702	0.157	-6.850	47.20
284801	0.157	-6.815	47.24
284901	0.157	-6.860	47.24
285001	0.157	-6.850	47.26
285100	0.157	-6.640	47.28
285200	0.157	-6.890	47.28
285301	0.158	-6.880	47.32
285401	0.158	-6.895	47.34
285501	0.158	-6.920	47.34
285600	0.156	-6.890	47.36
285701	0.155	-6.920	47.38
285802	0.158	-6.945	47.38
285900	0.158	-6.665	47.42
286001	0.157	-6.950	47.44
286101	0.160	-6.935	47.44
286201	0.157	-6.670	47.46
286301	0.156	-6.980	47.48
286401	0.158	-6.955	47.48
286501	0.158	-6.725	47.52
286603	0.160	-6.985	47.54
286700	0.159	-6.960	47.54
286802	0.161	-6.705	47.56
286902	0.166	-7.265	47.58
287001	0.159	-6.985	47.58
287101	0.165	-7.015	47.62
287201	0.153	-7.280	47.62
287301	0.149	-6.715	47.64
287402	0.165	-7.030	47.66
287501	0.160	-7.010	47.66
287600	0.159	-7.045	47.70
287702	0.157	-7.065	47.72
287802	0.157	-7.030	47.72
287901	0.160	-6.755	47.74
288002	0.158	-7.085	47.76
288101	0.156	-7.045	47.76
288202	0.150	-7.085	47.80
288301	0.155	-7.110	47.82
288400	0.158	-6.830	47.82
288502	0.158	-7.105	47.84
288601	0.156	-7.375	47.86
288700	0.157	-6.805	47.86
288800	0.155	-7.370	47.90
288902	0.158	-7.080	47.92
289001	0.139	-7.105	47.92
289101	0.150	-7.425	47.94
289202	0.159	-7.070	47.98
289302	0.159	-7.095	47.98
289400	0.156	-7.090	48.00
289501	0.156	-6.845	48.02
289602	0.158	-7.145	48.02
289700	0.157	-7.110	48.04
289801	0.159	-6.895	48.08
289902	0.158	-7.170	48.08
290002	0.156	-7.180	48.10
290100	0.153	-7.180	48.12
290200	0.157	-7.175	48.12
290301	0.160	-7.150	48.14
290400	0.159	-7.195	48.18
290500	0.156	-7.175	48.18
290601	0.157	-6.930	48.20
290701	0.157	-7.220	48.20
290801	0.158	-7.205	48.22
290900	0.154	-7.225	48.24
291001	0.159	-7.245	48.24
291101	0.156	-6.955	48.28
291201	0.160	-6.955	48.30
291301	0.155	-7.520	48.30
291402	0.159	-7.190	48.32
291502	0.156	-7.220	48.36
291602	0.159	-7.510	48.36
291700	0.159	-6.950	48.38
291802	0.159	-7.240	48.40
291901	0.159	-7.470	48.40
292000	0.156	-7.250	48.42
292101	0.157	-7.520	48.46
292202	0.159	-7.255	48.46
292302	0.161	-6.985	48.48
292402	0.157	-7.305	48.50
292502	0.161	-7.310	48.52
292601	0.157	-7.310	48.52
292700	0.160	-7.290	48.56
292801	0.160	-6.985	48.56
292901	0.156	-7.335	48.58
293000	0.159	-7.305	48.60
293100	0.159	-7.345	48.60
293202	0.158	-7.370	48.64
293302	0.156	-7.340	48.66
293400	0.159	-7.370	48.66
293502	0.160	-7.390	48.68
293602	0.156	-7.355	48.70
293700	0.159	-7.400	48.70
293802	0.162	-7.645	48.74
293901	0.164	-7.100	48.76
294002	0.159	-7.365	48.76
294101	0.161	-7.355	48.78
294200	0.153	-7.375	48.80
294302	0.161	-7.400	48.80
294401	0.163	-7.200	48.84
294500	0.160	-7.230	48.86
294601	0.160	-7.490	48.86
294701	0.162	-6.975	48.88
294800	0.163	-7.295	48.88
294902	0.159	-7.550	48.92
295001	0.143	-7.040	48.94
295101	0.161	-7.345	48.94
295201	0.159	-7.370	48.96
295301	0.160	-7.105	48.98
295401	0.159	-7.630	48.98
295502	0.158	-7.380	49.02
295601	0.157	-7.405	49.04
295701	0.158	-7.655	49.04
295800	0.174	-7.410	49.06
295902	0.159	-7.435	49.08
296001	0.160	-7.685	49.08
296100	0.160	-7.445	49.12
296200	0.162	-7.475	49.14
296302	0.160	-7.465	49.14
296402	0.162	-7.450	49.16
296502	0.157	-7.505	49.18
296601	0.161	-7.480	49.18
296702	0.160	-7.475	49.22
296800	0.160	-7.735	49.22
296900	0.164	-7.260	49.24
297001	0.160	-7.505	49.26
297101	0.159	-7.755	49.26
297200	0.160	-7.260	49.30
297300	0.159	-7.525	49.32
297401	0.160	-7.505	49.32
297501	0.158	-7.285	49.34
297601	0.160	-7.560	49.36
297701	0.161	-7.535	49.36
297801	0.160	-7.550	49.40
297901	0.161	-7.575	49.42
298002	0.160	-7.560	49.42
298101	0.154	-7.580	49.44
298200	0.161	-7.565	49.46
298301	0.163	-7.295	49.46
298402	0.161	-7.590	49.50
298501	0.160	-7.580	49.52
298602	0.160	-7.570	49.52
298702	0.162	-7.625	49.54
298800	0.160	-7.590	49.54
298901	0.162	-7.375	49.58
299002	0.161	-7.655	49.60
299102	0.163	-7.620	49.60
299200	0.152	-7.645	49.62
299302	0.163	-7.650	49.64
299401	0.160	-7.625	49.64
299500	0.160	-7.895	49.68
299601	0.161	-7.645	49.70
299701	0.161	-7.410	49.72
299800	0.160	-7.955	49.72
299902	0.157	-7.690	49.74
300002	0.158	-7.355	49.74
300100	0.162	-7.665	49.78
300200	0.161	-7.390	49.80
300301	0.151	-7.715	49.80
300401	0.158	-7.935	49.82
300500	0.146	-7.445	49.86
300602	0.159	-7.725	49.86
300700	0.158	-7.715	49.88
300801	0.158	-7.485	49.90
300900	0.157	-8.010	49.92
301002	0.158	-7.765	49.92
301100	0.157	-7.790	49.96
301201	0.159	-7.990	49.98
301301	0.159	-7.720	49.98
301402	0.157	-7.720	50.00
301502	0.159	-7.980	50.02
301600	0.160	-7.450	50.02
301701	0.159	-7.740	50.06
301802	0.159	-8.010	50.08
301902	0.159	-7.730	50.08
302001	0.162	-7.785	50.10
302100	0.162	-7.755	50.12
302201	0.155	-7.800	50.12
302302	0.164	-7.815	50.16
302402	0.163	-7.785	50.16
302501	0.154	-7.825	50.18
302602	0.163	-7.845	50.20
302702	0.164	-7.810	50.20
302800	0.162	-7.865	50.24
302902	0.164	-8.115	50.26
303001	0.163	-7.600	50.26
303100	0.162	-8.145	50.28
303201	0.162	-7.865	50.30
303302	0.162	-7.615	50.30
303401	0.163	-7.900	50.34
303501	0.162	-7.880	50.36
303601	0.161	-7.920	50.36
303701	0.162	-7.920	50.38
303802	0.160	-7.900	50.40
303902	0.167	-7.945	50.40
304001	0.163	-7.935	50.44
304102	0.166	-7.920	50.46
304201	0.163	-7.970	50.46
304300	0.162	-7.935	50.48
304401	0.163	-7.970	50.48
304501	0.161	-8.230	50.52
304601	0.164	-7.950	50.54
304701	0.161	-7.985	50.54
304800	0.161	-7.970	50.56
304902	0.162	-7.960	50.58
305002	0.161	-8.005	50.58
305102	0.165	-7.995	50.62
305201	0.158	-7.975	50.64
305301	0.162	-8.010	50.64
305400	0.160	-7.980	50.66
305500	0.164	-8.025	50.68
305600	0.160	-8.010	50.68
305701	0.161	-8.000	50.72
305800	0.159	-8.040	50.74
305900	0.162	-8.010	50.74
306001	0.158	-7.765	50.76
306102	0.162	-8.050	50.78
306200	0.160	-8.025	50.78
306301	0.163	-8.045	50.82
306402	0.160	-8.055	50.82
306501	0.159	-8.045	50.84
306600	0.160	-8.085	50.86
306701	0.162	-8.095	50.86
306801	0.161	-8.070	50.90
306900	0.160	-8.105	50.92
307000	0.162	-8.090	50.92
307101	0.163	-7.865	50.94
307201	0.164	-8.135	50.96
307301	0.163	-8.115	50.96
307400	0.162	-8.130	51.00
307501	0.163	-8.160	51.02
307601	0.160	-8.130	51.02
307701	0.163	-8.150	51.04
307802	0.162	-8.180	51.06
307900	0.164	-8.155	51.06
308000	0.162	-8.195	51.10
308102	0.164	-8.195	51.10
308201	0.165	-8.170	51.12
308301	0.164	-8.210	51.14
308400	0.166	-8.190	51.14
308502	0.167	-8.200	51.18
308600	0.165	-8.230	51.20
308700	0.164	-8.210	51.20
308801	0.164	-8.235	51.22
308901	0.164	-8.250	51.24
309001	0.161	-8.240	51.24
309100	0.162	-8.265	51.28
309201	0.161	-8.260	51.30
309302	0.165	-8.240	51.30
309401	0.163	-8.280	51.32
309501	0.162	-8.265	51.34
309601	0.169	-8.260	51.34
309701	0.161	-8.295	51.38
309801	0.161	-8.275	51.40
309900	0.165	-8.305	51.40
310002	0.158	-8.310	51.42
310102	0.163	-8.245	51.46
310202	0.164	-8.155	51.46
310301	0.165	-8.165	51.48
310400	0.164	-8.165	51.50
310502	0.168	-8.180	51.50
310600	0.165	-8.165	51.52
310700	0.167	-8.190	51.56
310801	0.166	-8.215	51.56
310902	0.167	-8.215	51.58
311000	0.164	-8.250	51.60
311101	0.166	-8.515	51.60
311202	0.165	-8.250	51.62
311301	0.160	-8.280	51.66
311400	0.166	-8.280	51.66
311501	0.167	-8.285	51.68
311602	0.166	-8.325	51.70
311700	0.158	-8.300	51.70
311801	0.165	-8.310	51.72
311901	0.164	-8.335	51.76
312002	0.169	-8.315	51.76
312101	0.164	-8.340	51.78
312202	0.164	-8.340	51.80
312301	0.172	-8.275	51.80
312401	0.165	-8.325	51.84
312502	0.168	-8.340	51.86
312601	0.162	-8.320	51.86
312701	0.169	-8.365	51.88
312802	0.166	-8.360	51.90
312901	0.164	-8.130	51.90
313000	0.165	-8.645	51.94
313101	0.168	-8.375	51.96
313202	0.165	-8.155	51.96
313300	0.166	-8.655	51.98
313401	0.166	-8.405	52.00
313502	0.163	-8.435	52.00
313602	0.163	-8.460	52.04
313700	0.167	-8.445	52.06
313801	0.164	-8.480	52.06
313900	0.169	-8.450	52.08
314001	0.165	-8.445	52.08
314101	0.178	-8.725	52.12
314201	0.168	-8.480	52.14
314301	0.167	-8.495	52.14
314402	0.164	-8.525	52.16
314502	0.165	-8.495	52.18
314601	0.164	-8.535	52.18
314701	0.166	-8.550	52.22
314801	0.163	-8.285	52.24
314901	0.164	-8.560	52.24
315001	0.166	-8.555	52.26
315102	0.164	-8.550	52.28
315201	0.165	-8.600	52.28
315302	0.164	-8.580	52.32
315400	0.163	-8.585	52.34
315502	0.163	-8.545	52.34
315600	0.163	-8.530	52.36
315700	0.164	-8.555	52.36
315801	0.166	-8.565	52.40
315901	0.167	-8.555	52.42
316000	0.165	-8.595	52.42
316101	0.164	-8.585	52.44
316201	0.167	-8.580	52.46
316301	0.158	-8.625	52.46
316400	0.165	-8.610	52.50
316500	0.165	-8.640	52.52
316601	0.164	-8.645	52.52
316702	0.166	-8.630	52.54
316801	0.164	-8.670	52.56
316901	0.166	-8.675	52.56
317001	0.160	-8.420	52.60
317102	0.168	-8.685	52.62
317201	0.167	-8.660	52.62
317300	0.162	-8.675	52.64
317402	0.165	-8.705	52.66
317502	0.165	-8.690	52.66
317600	0.165	-8.685	52.70
317700	0.165	-8.715	52.70
317802	0.166	-8.715	52.72
317902	0.169	-8.705	52.74
318002	0.165	-8.950	52.74
318101	0.167	-8.465	52.78
318201	0.170	-8.740	52.80
318301	0.166	-8.715	52.80
318400	0.167	-8.745	52.82
318502	0.164	-8.765	52.84
318601	0.170	-8.750	52.84
318702	0.175	-8.765	52.88
318800	0.166	-8.765	52.90
318901	0.176	-8.750	52.90
319002	0.172	-8.785	52.92
319100	0.164	-9.035	52.94
319201	0.172	-8.780	52.94
319302	0.164	-8.815	52.98
319401	0.176	-8.810	53.00
319500	0.160	-8.840	53.00
319601	0.169	-8.860	53.02
319701	0.164	-8.840	53.02
319801	0.179	-8.865	53.06
319901	0.165	-8.890	53.08
320001	0.163	-8.850	53.08
320101	0.164	-8.885	53.10
320201	0.171	-8.890	53.12
320300	0.172	-8.880	53.12
320401	0.171	-8.920	53.16
320502	0.165	-8.915	53.18
320600	0.163	-8.910	53.18
320700	0.165	-8.910	53.20
320802	0.167	-8.905	53.22
320900	0.168	-8.925	53.22
321001	0.162	-8.940	53.26
321101	0.167	-8.920	53.28
321201	0.166	-8.960	53.28
321301	0.172	-8.970	53.30
321401	0.171	-8.950	53.32
321501	0.160	-8.985	53.32
321602	0.163	-8.985	53.36
321700	0.168	-8.985	53.36
321801	0.169	-9.020	53.38
321901	0.163	-9.000	53.40
322002	0.171	-8.790	53.40
322100	0.174	-9.050	53.44
322201	0.166	-9.035	53.46
322301	0.166	-9.070	53.48
322401	0.161	-9.070	53.48
322501	0.166	-9.055	53.50
322600	0.162	-9.090	53.54
322701	0.164	-9.075	53.54
322801	0.159	-9.085	53.56
322902	0.161	-9.125	53.58
323001	0.170	-9.105	53.58
323101	0.174	-9.130	53.60
323201	0.175	-9.145	53.64
323300	0.175	-9.135	53.64
323402	0.173	-9.155	53.66
323501	0.175	-9.165	53.68
323602	0.164	-9.110	53.68
323701	0.174	-9.150	53.72
323801	0.175	-9.135	53.74
323901	0.166	-9.135	53.74
324001	0.165	-9.180	53.76
324100	0.165	-9.155	53.78
324201	0.165	-9.175	53.78
324302	0.163	-9.210	53.82
324400	0.169	-9.185	53.84
324502	0.164	-9.215	53.84
324601	0.166	-9.220	53.86
324700	0.163	-9.230	53.88
324800	0.162	-9.260	53.88
324901	0.164	-9.250	53.92
325002	0.166	-9.250	53.94
325101	0.169	-9.295	53.94
325200	0.170	-9.270	53.96
325302	0.169	-9.280	53.96
325400	0.173	-9.290	54.00
325501	0.173	-9.270	54.02
325602	0.169	-9.295	54.02
325701	0.169	-9.300	54.04
325801	0.168	-9.290	54.06
325900	0.172	-9.330	54.06
326002	0.170	-9.330	54.10
326101	0.171	-9.325	54.12
326201	0.173	-9.355	54.12
326302	0.173	-9.350	54.14
326402	0.173	-9.130	54.16
326501	0.174	-9.390	54.16
326601	0.173	-9.360	54.20
326701	0.162	-9.400	54.22
326801	0.172	-9.400	54.22
326900	0.174	-9.400	54.24
327001	0.162	-9.435	54.26
327101	0.172	-9.425	54.26
327201	0.174	-9.430	54.30
327300	0.172	-9.465	54.30
327401	0.171	-9.445	54.32
327502	0.168	-9.440	54.34
327602	0.173	-9.480	54.34
327701	0.174	-9.455	54.38
327801	0.174	-9.490	54.40
327901	0.164	-9.500	54.40
328002	0.173	-9.490	54.42
328101	0.174	-9.530	54.44
328201	0.175	-9.525	54.44
328301	0.172	-9.525	54.48
328402	0.171	-9.565	54.50
328502	0.175	-9.545	54.50
328602	0.172	-9.550	54.52
328701	0.174	-9.575	54.54
328800	0.173	-9.555	54.54
328900	0.178	-9.600	54.58
329002	0.163	-9.585	54.60
329101	0.168	-9.545	54.60
329200	0.177	-9.590	54.62
329301	0.172	-9.560	54.62
329401	0.176	-9.570	54.66
329501	0.177	-9.600	54.68
329600	0.174	-9.580	54.68
329701	0.175	-9.595	54.70
329802	0.178	-9.640	54.72
329902	0.177	-9.620	54.72
330001	0.177	-9.640	54.76
330102	0.175	-9.650	54.78
330202	0.179	-9.625	54.78
330302	0.179	-9.640	54.80
330401	0.177	-9.660	54.82
330501	0.177	-9.660	54.82
330600	0.178	-9.685	54.86
330700	0.179	-9.665	54.88
330801	0.180	-9.700	54.88
330902	0.184	-9.720	54.90
331002	0.179	-9.695	54.90
331101	0.172	-9.735	54.94
331201	0.179	-9.725	54.96
331300	0.181	-9.725	54.96
331401	0.181	-9.735	54.98
331502	0.183	-9.740	55.00
331602	0.178	-9.725	55.00
331700	0.181	-9.760	55.04
331801	0.178	-9.740	55.06
331901	0.179	-9.745	55.06
332001	0.180	-9.755	55.08
332102	0.178	-9.735	55.10
332201	0.178	-9.760	55.10
332302	0.179	-9.750	55.14
332401	0.180	-9.725	55.16
332502	0.178	-9.755	55.16
332601	0.178	-9.750	55.18
332702	0.177	-9.745	55.20
332801	0.176	-9.785	55.20
332902	0.177	-9.745	55.24
333001	0.176	-9.750	55.24
333101	0.178	-9.765	55.26
333201	0.164	-9.750	55.28
333301	0.173	-9.755	55.32
333401	0.173	-9.695	55.32
333502	0.174	-9.700	55.34
333601	0.177	-9.745	55.34
333700	0.174	-9.735	55.36
333802	0.175	-9.745	55.38
333902	0.174	-9.780	55.42
334001	0.177	-9.780	55.42
334102	0.171	-9.790	55.44
334202	0.172	-9.820	55.46
334301	0.172	-9.795	55.46
334401	0.170	-9.820	55.48
334501	0.173	-9.830	55.52
334600	0.170	-9.830	55.52
334701	0.173	-9.850	55.54
334802	0.168	-9.860	55.56
334902	0.169	-9.840	55.56
335000	0.165	-9.880	55.60
335101	0.172	-9.860	55.62
335201	0.172	-9.880	55.62
335300	0.172	-9.905	55.64
335400	0.173	-9.900	55.66
335502	0.173	-9.920	55.66
335601	0.171	-9.930	55.70
335701	0.173	-9.930	55.72
335802	0.171	-9.960	55.72
335900	0.171	-9.945	55.74
336001	0.172	-9.955	55.76
336101	0.172	-9.990	55.76
336202	0.173	-9.985	55.80
336300	0.173	-10.000	55.82
336400	0.165	-10.010	55.82
336502	0.169	-10.010	55.84
336601	0.173	-10.045	55.86
336701	0.170	-10.045	55.86
336801	0.174	-10.030	55.90
336901	0.169	-10.075	55.90
337001	0.168	-10.070	55.92
337101	0.172	-10.065	55.94
337200	0.172	-10.080	55.94
337302	0.166	-10.075	55.98
337401	0.176	-10.095	56.00
337502	0.172	-10.115	56.00
337600	0.173	-10.095	56.02
337701	0.161	-10.120	56.04
337801	0.170	-10.125	56.04
337902	0.175	-10.120	56.08
338001	0.172	-10.155	56.10
338102	0.175	-10.165	56.10
338201	0.172	-10.150	56.12
338300	0.174	-10.175	56.14
338400	0.173	-10.160	56.14
338501	0.175	-10.195	56.18
338600	0.177	-10.200	56.18
338700	0.173	-10.195	56.20
338801	0.175	-10.230	56.22
338901	0.175	-10.230	56.22
339001	0.176	-10.225	56.26
339101	0.177	-10.260	56.28
339202	0.175	-10.270	56.28
339302	0.175	-10.265	56.30
339400	0.179	-10.295	56.32
339502	0.174	-10.295	56.32
339601	0.175	-10.305	56.36
339701	0.178	-10.330	56.38
339800	0.172	-10.320	56.38
339902	0.176	-10.345	56.40
340001	0.172	-10.355	56.42
340102	0.171	-10.345	56.42
340201	0.173	-10.385	56.46
340301	0.173	-10.380	56.48
340402	0.173	-10.370	56.48
340501	0.175	-10.415	56.50
340600	0.175	-10.380	56.54
340700	0.175	-10.410	56.54
340801	0.171	-10.425	56.56
340902	0.172	-10.415	56.58
341001	0.170	-10.450	56.58
341100	0.170	-10.415	56.60
341201	0.169	-10.410	56.64
341302	0.170	-10.445	56.64
341402	0.170	-10.455	56.66
341501	0.169	-10.460	56.66
341601	0.163	-10.490	56.68
341701	0.165	-10.470	56.70
341800	0.165	-10.495	56.70
341901	0.167	-10.510	56.74
342001	0.164	-10.490	56.76
342101	0.170	-10.525	56.76
342201	0.159	-10.530	56.78
342300	0.161	-10.490	56.80
342401	0.160	-10.525	56.80
342500	0.162	-10.510	56.84
342601	0.162	-10.515	56.86
342701	0.162	-10.555	56.86
342802	0.160	-10.535	56.88
342902	0.163	-10.545	56.88
343001	0.175	-10.575	56.92
343102	0.163	-10.565	56.94
343202	0.161	-10.585	56.96
343301	0.153	-10.600	56.96
343401	0.159	-10.590	56.98
343502	0.161	-10.620	57.02
343602	0.159	-10.630	57.02
343702	0.158	-10.625	57.04
343800	0.159	-10.650	57.06
343901	0.157	-10.640	57.06
344000	0.160	-10.660	57.08
344102	0.157	-10.665	57.12
344201	0.158	-10.645	57.12
344300	0.157	-10.675	57.14
344402	0.156	-10.675	57.16
344501	0.156	-10.655	57.16
344600	0.157	-10.685	57.20
344700	0.160	-10.665	57.22
344802	0.157	-10.670	57.22
344902	0.161	-10.700	57.24
345000	0.160	-10.685	57.24
345100	0.160	-10.690	57.26
345202	0.159	-10.705	57.30
345301	0.160	-10.675	57.30
345401	0.159	-10.695	57.32
345502	0.161	-10.705	57.34
345602	0.160	-10.685	57.34
345700	0.157	-10.700	57.36
345801	0.162	-10.685	57.40
345900	0.161	-10.695	57.40
346001	0.162	-10.715	57.42
346101	0.160	-10.690	57.44
346202	0.161	-10.700	57.44
346300	0.160	-10.685	57.48
346401	0.161	-10.670	57.50
346501	0.160	-10.685	57.50
346600	0.161	-10.670	57.52
346701	0.159	-10.665	57.54
346802	0.166	-10.665	57.54
346901	0.161	-10.665	57.58
347001	0.159	-10.660	57.60
347100	0.163	-10.680	57.60
347201	0.160	-10.645	57.62
347301	0.161	-10.665	57.64
347401	0.161	-10.670	57.64
347501	0.161	-10.650	57.68
347601	0.166	-10.675	57.70
347700	0.161	-10.660	57.70
347800	0.163	-10.640	57.72
347902	0.160	-10.615	57.74
348002	0.161	-10.590	57.74
348101	0.162	-10.555	57.78
348200	0.167	-10.565	57.78
348302	0.166	-10.540	57.80
348401	0.168	-10.555	57.82
348500	0.170	-10.555	57.82
348600	0.175	-10.560	57.86
348701	0.176	-10.605	57.88
348801	0.191	-10.620	57.88
348902	0.180	-10.625	57.90
349002	0.181	-10.665	57.92
349101	0.180	-10.660	57.92
349202	0.181	-10.680	57.96
349300	0.182	-10.725	57.98
349401	0.182	-10.725	57.98
349502	0.181	-10.740	58.00
349600	0.180	-10.775	58.02
349700	0.178	-10.770	58.02
349802	0.177	-10.800	58.06
349900	0.179	-10.810	58.08
350002	0.178	-10.815	58.08
350102	0.176	-10.845	58.10
350200	0.178	-10.850	58.10
350302	0.176	-10.850	58.14
350400	0.177	-10.890	58.16
350500	0.175	-10.875	58.16
350601	0.176	-10.890	58.18
350701	0.177	-10.910	58.20
350801	0.169	-10.920	58.20
350902	0.176	-10.910	58.24
351002	0.175	-10.940	58.26
351102	0.175	-10.925	58.26
351200	0.173	-10.955	58.28
351301	0.174	-10.965	58.30
351401	0.187	-10.950	58.30
351500	0.175	-10.995	58.34
351600	0.176	-10.985	58.36
351701	0.177	-10.995	58.36
351802	0.175	-11.025	58.38
351902	0.175	-11.015	58.40
352002	0.174	-11.035	58.40
352100	0.175	-11.040	58.44
352202	0.173	-11.040	58.46
352300	0.176	-11.070	58.46
352402	0.174	-11.080	58.48
352500	0.169	-11.075	58.52
352602	0.171	-11.100	58.52
352701	0.168	-11.085	58.54
352800	0.165	-11.115	58.56
352900	0.165	-11.115	58.56
353002	0.165	-11.120	58.58
353102	0.166	-11.130	58.62
353200	0.165	-11.140	58.62
353301	0.165	-11.140	58.64
353402	0.165	-11.170	58.66
353501	0.169	-11.170	58.66
353600	0.167	-11.185	58.68
353700	0.170	-11.210	58.72
353802	0.170	-11.190	58.72
353902	0.171	-11.200	58.74
354000	0.168	-11.225	58.76
354102	0.165	-11.215	58.76
354201	0.171	-11.250	58.80
354302	0.173	-11.260	58.82
354401	0.173	-11.250	58.82
354500	0.180	-11.285	58.84
354600	0.178	-11.275	58.84
354702	0.179	-11.290	58.86
354802	0.179	-11.320	58.90
354900	0.183	-11.305	58.90
355001	0.182	-11.325	58.92
355101	0.180	-11.350	58.94
355202	0.178	-11.340	58.96
355300	0.178	-11.370	58.96
355402	0.187	-11.380	59.00
355501	0.178	-11.365	59.02
355602	0.169	-11.375	59.02
355701	0.176	-11.385	59.04
355802	0.175	-11.385	59.04
355901	0.175	-11.425	59.08
356002	0.175	-11.425	59.10
356102	0.175	-11.430	59.10
356202	0.175	-11.460	59.12
356302	0.176	-11.450	59.14
356402	0.174	-11.470	59.14
356500	0.173	-11.480	59.18
356600	0.176	-11.475	59.20
356701	0.174	-11.505	59.20
356802	0.173	-11.510	59.22
356901	0.178	-11.515	59.24
357002	0.173	-11.545	59.24
357102	0.173	-11.540	59.28
357200	0.176	-11.555	59.30
357302	0.176	-11.560	59.30
357401	0.176	-11.565	59.32
357501	0.166	-11.555	59.34
357600	0.173	-11.560	59.34
357700	0.177	-11.570	59.38
357802	0.175	-11.590	59.38
357902	0.174	-11.610	59.40
358000	0.176	-11.615	59.42
358102	0.175	-11.645	59.42
358202	0.170	-11.635	59.46
358300	0.174	-11.655	59.48
358402	0.173	-11.675	59.48
358502	0.173	-11.675	59.50
358602	0.169	-11.680	59.52
358701	0.173	-11.690	59.52
358801	0.172	-11.695	59.56
358900	0.171	-11.720	59.58
359002	0.173	-11.720	59.58
359100	0.174	-11.720	59.60
359201	0.173	-11.735	59.62
359302	0.175	-11.725	59.62
359402	0.174	-11.725	59.66
359501	0.175	-11.760	59.68
359601	0.175	-11.750	59.68
359701	0.174	-11.780	59.70
359801	0.176	-11.785	59.70
359901	0.170	-11.785	59.74
360001	0.176	-11.820	59.76
360101	0.169	-11.800	59.76
360201	0.172	-11.795	59.78
360302	0.176	-11.820	59.80
360402	0.174	-11.820	59.80
360501	0.172	-11.840	59.84
360601	0.167	-11.855	59.86
360702	0.169	-11.850	59.86
360800	0.172	-11.885	59.88
360902	0.173	-11.895	59.90
361002	0.175	-11.860	59.90
361100	0.171	-11.895	59.94
361200	0.174	-11.880	59.96
361301	0.171	-11.900	59.96
361402	0.171	-11.935	59.98
361501	0.177	-11.925	60.02
361601	0.174	-11.945	60.02
361702	0.179	-11.970	60.04
361802	0.166	-11.960	60.06
361902	0.169	-11.980	60.06
362000	0.171	-11.985	60.08
362102	0.170	-11.995	60.12
362202	0.172	-12.020	60.12
362300	0.170	-12.010	60.14
362400	0.170	-12.035	60.16
362501	0.171	-12.060	60.16
362601	0.173	-12.050	60.18
362701	0.174	-12.070	60.18
362800	0.171	-12.080	60.22
362902	0.172	-12.085	60.24
363001	0.172	-12.105	60.24
363101	0.178	-12.110	60.26
363201	0.173	-12.105	60.28
363301	0.174	-12.135	60.28
363402	0.173	-12.135	60.32
363501	0.164	-12.135	60.34
363601	0.172	-12.155	60.34
363701	0.180	-12.160	60.36
363801	0.171	-12.155	60.40
363901	0.161	-12.180	60.40
364001	0.168	-12.175	60.42
364102	0.161	-12.195	60.44
364201	0.178	-12.205	60.46
364301	0.176	-12.200	60.46
364402	0.169	-12.230	60.50
364501	0.169	-12.230	60.52
364600	0.168	-12.250	60.52
364702	0.179	-12.265	60.54
364802	0.173	-12.265	60.56
364901	0.166	-12.275	60.56
365002	0.168	-12.290	60.60
365101	0.160	-12.275	60.60
365200	0.164	-12.310	60.62
365301	0.166	-12.320	60.64
365402	0.165	-12.310	60.64
365501	0.165	-12.340	60.68
365600	0.171	-12.325	60.70
365701	0.166	-12.335	60.70
365802	0.164	-12.360	60.72
365902	0.167	-12.355	60.74
366001	0.166	-12.360	60.74
366100	0.165	-12.370	60.78
366202	0.159	-12.355	60.80
366300	0.167	-12.375	60.80
366402	0.167	-12.375	60.82
366501	0.165	-12.355	60.84
366601	0.168	-12.370	60.84
366700	0.169	-12.340	60.88
366802	0.170	-12.345	60.90
366902	0.170	-12.370	60.90
367002	0.172	-12.365	60.92
367100	0.169	-12.390	60.94
367201	0.168	-12.400	60.94
367301	0.166	-12.385	60.98
367402	0.170	-12.400	60.98
367500	0.171	-12.405	61.00
367602	0.170	-12.395	61.02
367701	0.167	-12.405	61.02
367801	0.168	-12.390	61.06
367900	0.167	-12.400	61.08
368002	0.167	-12.400	61.08
368101	0.167	-12.385	61.10
368201	0.167	-12.390	61.12
368301	0.169	-12.405	61.12
368402	0.163	-12.405	61.16
368501	0.166	-12.410	61.18
368601	0.170	-12.415	61.18
368701	0.166	-12.405	61.20
368800	0.166	-12.430	61.22
368901	0.166	-12.415	61.22
369001	0.165	-12.420	61.26
369101	0.168	-12.450	61.26
369201	0.167	-12.445	61.28
369300	0.169	-12.470	61.30
369401	0.170	-12.475	61.30
369500	0.169	-12.470	61.34
369601	0.167	-12.455	61.36
369702	0.169	-12.440	61.36
369801	0.173	-12.420	61.38
369900	0.171	-12.450	61.40
370001	0.170	-12.435	61.40
370102	0.171	-12.440	61.44
370201	0.171	-12.465	61.46
370300	0.171	-12.455	61.46
370400	0.169	-12.485	61.48
370502	0.169	-12.505	61.50
370602	0.168	-12.510	61.50
370701	0.171	-12.515	61.54
370802	0.155	-12.535	61.56
370902	0.170	-12.520	61.56
371000	0.171	-12.560	61.58
371100	0.169	-12.550	61.58
371201	0.170	-12.565	61.62
371301	0.165	-12.600	61.64
371402	0.172	-12.600	61.64
371501	0.170	-12.615	61.66
371601	0.165	-12.640	61.68
371702	0.171	-12.635	61.68
371800	0.171	-12.615	61.72
371901	0.165	-12.630	61.74
372002	0.173	-12.620	61.76
372101	0.173	-12.655	61.76
372201	0.172	-12.655	61.78
372300	0.173	-12.660	61.78
372401	0.170	-12.695	61.82
372502	0.171	-12.705	61.84
372601	0.172	-12.705	61.84
372701	0.172	-12.740	61.86
372801	0.168	-12.735	61.88
372902	0.173	-12.745	61.88
373000	0.171	-12.775	61.92
373101	0.173	-12.770	61.94
373202	0.167	-12.785	61.96
373301	0.167	-12.795	61.96
373400	0.170	-12.805	62.00
373501	0.170	-12.835	62.02
373602	0.171	-12.840	62.02
373701	0.167	-12.840	62.04
373800	0.171	-12.865	62.04
373901	0.170	-12.865	62.06
374002	0.166	-12.885	62.10
374102	0.168	-12.900	62.10
374201	0.171	-12.890	62.12
374301	0.172	-12.915	62.14
374401	0.169	-12.915	62.14
374502	0.171	-12.925	62.16
374600	0.171	-12.945	62.20
374700	0.171	-12.940	62.20
374802	0.168	-12.955	62.22
374901	0.177	-12.985	62.24
375000	0.172	-12.975	62.24
375100	0.172	-13.010	62.28
375201	0.171	-13.015	62.30
375302	0.173	-13.015	62.30
375400	0.172	-13.050	62.32
375502	0.171	-13.055	62.34
375601	0.171	-13.050	62.34
375700	0.169	-13.080	62.38
375801	0.170	-13.080	62.38
375901	0.168	-13.070	62.40
376001	0.169	-13.095	62.42
376101	0.168	-13.085	62.44
376200	0.169	-13.120	62.44
376301	0.171	-13.130	62.48
376402	0.166	-13.120	62.50
376501	0.168	-13.145	62.50
376602	0.168	-13.145	62.52
376700	0.169	-13.160	62.52
376802	0.168	-13.155	62.56
376900	0.171	-13.150	62.58
377000	0.168	-13.175	62.58
377101	0.169	-13.190	62.60
377202	0.172	-13.195	62.62
377300	0.170	-13.215	62.62
377400	0.167	-13.210	62.66
377501	0.168	-13.220	62.68
377602	0.168	-13.245	62.68
377701	0.169	-13.260	62.70
377801	0.169	-13.255	62.72
377902	0.169	-13.285	62.72
378001	0.169	-13.270	62.76
378102	0.171	-13.290	62.78
378201	0.173	-13.320	62.78
378302	0.170	-13.315	62.80
378402	0.170	-13.335	62.82
378500	0.171	-13.345	62.82
378601	0.173	-13.360	62.86
378700	0.173	-13.375	62.86
378801	0.172	-13.365	62.88
378901	0.174	-13.375	62.90
379002	0.172	-13.405	62.90
379102	0.173	-13.405	62.94
379202	0.172	-13.415	62.96
379301	0.173	-13.435	62.96
379401	0.173	-13.425	62.98
379502	0.171	-13.445	63.00
379602	0.173	-13.465	63.00
379701	0.173	-13.455	63.04
379801	0.173	-13.475	63.06
379902	0.171	-13.490	63.06
380002	0.173	-13.485	63.08
380102	0.171	-13.515	63.10
380200	0.169	-13.510	63.10
380301	0.174	-13.520	63.14
380401	0.179	-13.555	63.16
380501	0.173	-13.545	63.16
380601	0.176	-13.570	63.18
380701	0.163	-13.585	63.18
380801	0.177	-13.575	63.22
380901	0.176	-13.605	63.24
381000	0.176	-13.600	63.24
381101	0.175	-13.600	63.26
381201	0.177	-13.620	63.28
381301	0.179	-13.610	63.28
381402	0.175	-13.620	63.32
381500	0.173	-13.645	63.34
381601	0.179	-13.635	63.34
381701	0.173	-13.665	63.36
381800	0.176	-13.660	63.38
381900	0.176	-13.665	63.38
382002	0.173	-13.675	63.42
382101	0.173	-13.675	63.44
382202	0.175	-13.680	63.44
382300	0.175	-13.710	63.46
382402	0.175	-13.715	63.48
382502	0.172	-13.715	63.48
382601	0.175	-13.725	63.52
382701	0.173	-13.720	63.52
382802	0.173	-13.740	63.54
382902	0.172	-13.755	63.56
383000	0.172	-13.735	63.56
383100	0.175	-13.760	63.60
383201	0.174	-13.755	63.62
383301	0.172	-13.775	63.62
383401	0.174	-13.765	63.64
383501	0.174	-13.735	63.66
383602	0.173	-13.750	63.66
383702	0.172	-13.775	63.70
383801	0.173	-13.770	63.72
383901	0.173	-13.800	63.74
384001	0.172	-13.805	63.74
384101	0.171	-13.795	63.76
384200	0.172	-13.830	63.76
384302	0.173	-13.840	63.80
384401	0.172	-13.840	63.82
384501	0.174	-13.850	63.82
384601	0.172	-13.860	63.84
384702	0.172	-13.875	63.88
384801	0.176	-13.900	63.88
384900	0.171	-13.895	63.90
385001	0.175	-13.930	63.92
385102	0.172	-13.940	63.94
385200	0.173	-13.935	63.94
385302	0.174	-13.945	63.98
385402	0.174	-13.965	64.00
385501	0.174	-13.975	64.00
385600	0.175	-13.995	64.02
385702	0.176	-14.000	64.04
385802	0.173	-14.005	64.04
385901	0.176	-14.030	64.08
386001	0.171	-14.025	64.10
386101	0.173	-14.050	64.10
386201	0.173	-14.060	64.12
386302	0.174	-14.070	64.12
386401	0.173	-14.095	64.16
386502	0.175	-14.105	64.18
386601	0.177	-14.100	64.18
386700	0.176	-14.135	64.20
386801	0.174	-14.125	64.22
386901	0.176	-14.145	64.22
387001	0.173	-14.160	64.26
387100	0.173	-14.155	64.28
387200	0.175	-14.185	64.28
387301	0.175	-14.195	64.30
387402	0.173	-14.185	64.32
387500	0.171	-14.215	64.32
387600	0.173	-14.215	64.36
387701	0.171	-14.225	64.38
387800	0.172	-14.245	64.38
387900	0.176	-14.220	64.40
388001	0.171	-14.245	64.42
388101	0.169	-14.265	64.42
388200	0.170	-14.260	64.46
388300	0.170	-14.290	64.46
388402	0.167	-14.290	64.48
388502	0.168	-14.280	64.50
388601	0.168	-14.315	64.50
388702	0.167	-14.325	64.54
388801	0.170	-14.315	64.56
388901	0.169	-14.300	64.56
389001	0.168	-14.285	64.58
389102	0.161	-14.300	64.60
389202	0.168	-14.330	64.60
389301	0.172	-14.315	64.64
389400	0.173	-14.345	64.66
389502	0.171	-14.345	64.66
389602	0.168	-14.325	64.68
389701	0.171	-14.350	64.70
389801	0.173	-14.355	64.70
389902	0.168	-14.360	64.74
390002	0.171	-14.385	64.76
390100	0.169	-14.375	64.76
390202	0.169	-14.385	64.78
390300	0.169	-14.405	64.78
390402	0.167	-14.405	64.82
390501	0.168	-14.430	64.84
390602	0.169	-14.440	64.84
390700	0.170	-14.435	64.86
390801	0.166	-14.455	64.88
390901	0.170	-14.445	64.88
391001	0.170	-14.465	64.92
391100	0.168	-14.490	64.94
391201	0.168	-14.480	64.94
391302	0.169	-14.490	64.96
391400	0.169	-14.515	64.98
391502	0.167	-14.510	64.98
391600	0.171	-14.535	65.02
391701	0.170	-14.530	65.04
391802	0.171	-14.545	65.04
391901	0.174	-14.560	65.06
392001	0.172	-14.555	65.06
392101	0.173	-14.565	65.10
392200	0.184	-14.580	65.12
392300	0.178	-14.575	65.12
392401	0.176	-14.595	65.14
392501	0.179	-14.610	65.16
392602	0.184	-14.595	65.16
392702	0.186	-14.605	65.20
392802	0.184	-14.630	65.22
392902	0.185	-14.625	65.22
393001	0.183	-14.650	65.24
393101	0.181	-14.650	65.26
393202	0.177	-14.650	65.26
393302	0.175	-14.675	65.30
393400	0.175	-14.665	65.32
393502	0.180	-14.675	65.32
393602	0.182	-14.700	65.34
393701	0.173	-14.700	65.36
393800	0.173	-14.730	65.36
393901	0.169	-14.740	65.40
394001	0.177	-14.720	65.40
394102	0.175	-14.740	65.42
394202	0.176	-14.745	65.44
394301	0.172	-14.750	65.48
394401	0.171	-14.770	65.48
394500	0.174	-14.770	65.50
394601	0.169	-14.780	65.52
394702	0.170	-14.800	65.52
394800	0.172	-14.790	65.54
394901	0.171	-14.820	65.58
395002	0.171	-14.825	65.58
395102	0.171	-14.820	65.60
395201	0.168	-14.845	65.62
395300	0.172	-14.840	65.62
395402	0.171	-14.845	65.64
395501	0.173	-14.875	65.68
395602	0.174	-14.875	65.68
395701	0.167	-14.880	65.70
395802	0.173	-14.905	65.72
395901	0.175	-14.895	65.72
396001	0.174	-14.920	65.76
396101	0.174	-14.935	65.78
396201	0.174	-14.925	65.78
396300	0.176	-14.955	65.80
396401	0.175	-14.955	65.82
396501	0.174	-14.970	65.82
396601	0.173	-14.985	65.86
396700	0.174	-14.975	65.88
396801	0.174	-14.990	65.88
396902	0.172	-15.020	65.90
397002	0.171	-15.015	65.92
397101	0.179	-15.025	65.92
397201	0.170	-15.030	65.96
397302	0.175	-15.020	65.98
397402	0.175	-15.050	65.98
397501	0.178	-15.050	66.00
397602	0.178	-15.065	66.02
397702	0.179	-15.075	66.02
397802	0.181	-15.080	66.06
397901	0.182	-15.090	66.06
398002	0.182	-15.110	66.08
398101	0.179	-15.105	66.10
398202	0.180	-15.125	66.10
398300	0.181	-15.135	66.14
398400	0.181	-15.135	66.16
398501	0.183	-15.155	66.16
398601	0.180	-15.165	66.18
398702	0.180	-15.165	66.20
398801	0.180	-15.195	66.20
398902	0.179	-15.195	66.24
399002	0.181	-15.205	66.26
399101	0.182	-15.225	66.26
399200	0.179	-15.220	66.28
399302	0.179	-15.240	66.30
399402	0.178	-15.250	66.30
399500	0.164	-15.250	66.34
399601	0.182	-15.265	66.34
399702	0.181	-15.280	66.36
399802	0.178	-15.275	66.38
399900	0.177	-15.305	66.38
400000	0.177	-15.280	66.42
400101	0.176	-15.305	66.44
400201	0.172	-15.315	66.44
400302	0.177	-15.315	66.46
400401	0.175	-15.335	66.48
400502	0.178	-15.340	66.48
400601	0.176	-15.340	66.52
400701	0.178	-15.360	66.54
400802	0.175	-15.365	66.54
400902	0.173	-15.360	66.56
401001	0.176	-15.385	66.58
401100	0.172	-15.380	66.58
401201	0.174	-15.405	66.62
401302	0.172	-15.410	66.64
401401	0.173	-15.400	66.64
401501	0.172	-15.420	66.66
401601	0.164	-15.425	66.66
401701	0.172	-15.430	66.70
401802	0.173	-15.450	66.72
401902	0.171	-15.465	66.72
402002	0.172	-15.465	66.74
402101	0.177	-15.490	66.76
402201	0.173	-15.485	66.76
402302	0.172	-15.495	66.80
402402	0.175	-15.520	66.82
402501	0.169	-15.515	66.82
402601	0.176	-15.540	66.84
402702	0.175	-15.540	66.86
402802	0.176	-15.545	66.86
402901	0.177	-15.560	66.90
403001	0.179	-15.545	66.92
403100	0.178	-15.550	66.92
403202	0.177	-15.570	66.94
403301	0.179	-15.570	66.96
403401	0.173	-15.585	66.96
403501	0.177	-15.605	67.00
403601	0.169	-15.605	67.02
403700	0.167	-15.635	67.02
403802	0.176	-15.645	67.04
403902	0.176	-15.645	67.08
404001	0.177	-15.670	67.08
404100	0.175	-15.670	67.10
404201	0.175	-15.680	67.12
404302	0.177	-15.710	67.12
404400	0.174	-15.705	67.14
404500	0.175	-15.735	67.18
404601	0.175	-15.745	67.18
404701	0.180	-15.745	67.20
404801	0.179	-15.765	67.22
404900	0.178	-15.770	67.22
405001	0.176	-15.775	67.24
405102	0.166	-15.800	67.28
405200	0.175	-15.810	67.28
405302	0.176	-15.805	67.30
405401	0.181	-15.830	67.30
405501	0.178	-15.830	67.32
405601	0.179	-15.840	67.36
405702	0.181	-15.865	67.36
405801	0.180	-15.855	67.38
405900	0.178	-15.875	67.40
406001	0.183	-15.895	67.40
406100	0.183	-15.885	67.42
406201	0.179	-15.910	67.46
406300	0.180	-15.905	67.48
406402	0.182	-15.915	67.48
406502	0.181	-15.950	67.50
406601	0.183	-15.945	67.52
406701	0.181	-15.960	67.52
406801	0.184	-15.980	67.56
406901	0.183	-15.975	67.58
407001	0.182	-16.000	67.58
407101	0.180	-16.010	67.60
407201	0.178	-16.000	67.60
407302	0.180	-16.020	67.64
407402	0.177	-16.035	67.66
407501	0.178	-16.035	67.66
407601	0.176	-16.060	67.68
407701	0.175	-16.055	67.70
407802	0.173	-16.070	67.70
407901	0.173	-16.090	67.74
408002	0.173	-16.085	67.76
408101	0.172	-16.105	67.76
408201	0.172	-16.110	67.78
408301	0.173	-16.110	67.80
408401	0.164	-16.130	67.80
408502	0.170	-16.140	67.84
408602	0.169	-16.130	67.86
408701	0.170	-16.150	67.86
408802	0.187	-16.155	67.88
408901	0.168	-16.175	67.90
409001	0.167	-16.185	67.90
409101	0.171	-16.185	67.94
409201	0.169	-16.210	67.94
409302	0.173	-16.225	67.96
409400	0.167	-16.220	67.98
409501	0.174	-16.240	67.98
409601	0.168	-16.235	68.02
409701	0.168	-16.255	68.04
409800	0.170	-16.265	68.04
409901	0.169	-16.265	68.06
410001	0.163	-16.290	68.08
410102	0.165	-16.305	68.08
410200	0.171	-16.295	68.12
410301	0.168	-16.310	68.14
410402	0.171	-16.325	68.14
410500	0.179	-16.320	68.16
410600	0.169	-16.340	68.18
410702	0.172	-16.340	68.18
410801	0.171	-16.340	68.22
410901	0.173	-16.360	68.24
411002	0.172	-16.360	68.24
411101	0.176	-16.370	68.26
411201	0.171	-16.385	68.26
411300	0.174	-16.385	68.30
411402	0.175	-16.400	68.32
411501	0.176	-16.410	68.32
411602	0.173	-16.410	68.34
411700	0.176	-16.440	68.36
411802	0.175	-16.450	68.36
411902	0.177	-16.450	68.40
412000	0.175	-16.475	68.42
412101	0.177	-16.470	68.42
412202	0.175	-16.480	68.44
412302	0.175	-16.505	68.46
412402	0.176	-16.500	68.46
412501	0.175	-16.520	68.50
412601	0.173	-16.525	68.52
412702	0.171	-16.520	68.54
412800	0.172	-16.550	68.54
412900	0.171	-16.550	68.56
413001	0.171	-16.560	68.56
413101	0.171	-16.585	68.60
413200	0.170	-16.580	68.62
413300	0.173	-16.610	68.62
413402	0.176	-16.625	68.64
413502	0.173	-16.620	68.68
413601	0.174	-16.645	68.68
413701	0.178	-16.660	68.70
413801	0.177	-16.660	68.72
413901	0.176	-16.690	68.72
414002	0.177	-16.700	68.74
414101	0.177	-16.700	68.78
414202	0.178	-16.720	68.78
414302	0.180	-16.725	68.80
414401	0.176	-16.735	68.80
414501	0.177	-16.760	68.82
414602	0.176	-16.760	68.84
414702	0.178	-16.780	68.84
414800	0.175	-16.785	68.88
414901	0.176	-16.790	68.90
415002	0.174	-16.825	68.90
415101	0.175	-16.825	68.92
415200	0.173	-16.840	68.96
415301	0.173	-16.865	68.98
415402	0.174	-16.865	68.98
415500	0.173	-16.890	69.00
415601	0.174	-16.900	69.02
415701	0.175	-16.895	69.02
415802	0.173	-16.920	69.06
415901	0.174	-16.935	69.06
416001	0.178	-16.930	69.08
416101	0.174	-16.955	69.10
416202	0.177	-16.960	69.10
416300	0.176	-16.970	69.12
416401	0.174	-16.990	69.16
416502	0.174	-16.990	69.16
416601	0.173	-17.000	69.18
416700	0.174	-17.015	69.20
416801	0.176	-17.015	69.20
416902	0.174	-17.030	69.24
417000	0.176	-17.040	69.26
417101	0.173	-17.040	69.26
417201	0.173	-17.060	69.28
417302	0.172	-17.070	69.30
417401	0.173	-17.070	69.30
417502	0.173	-17.090	69.34
417602	0.172	-17.095	69.36
417701	0.174	-17.110	69.36
417801	0.169	-17.120	69.38
417902	0.169	-17.130	69.40
418001	0.166	-17.140	69.40
418102	0.171	-17.150	69.44
418201	0.168	-17.150	69.46
418302	0.170	-17.170	69.46
418401	0.166	-17.175	69.48
418500	0.172	-17.180	69.50
418602	0.167	-17.200	69.50
418701	0.172	-17.195	69.54
418800	0.164	-17.230	69.54
418900	0.167	-17.240	69.56
419001	0.166	-17.235	69.58
419102	0.168	-17.255	69.58
419200	0.169	-17.270	69.62
419301	0.167	-17.275	69.64
419401	0.170	-17.305	69.64
419501	0.168	-17.300	69.66
419600	0.165	-17.320	69.68
419700	0.172	-17.335	69.68
419801	0.169	-17.340	69.72
419901	0.171	-17.360	69.74
420001	0.169	-17.370	69.74
420101	0.175	-17.370	69.76
420201	0.173	-17.390	69.78
420302	0.173	-17.400	69.78
420401	0.171	-17.395	69.82
420501	0.171	-17.420	69.84
420601	0.175	-17.420	69.84
420702	0.176	-17.430	69.86
420801	0.176	-17.455	69.86
420901	0.177	-17.450	69.90
421001	0.176	-17.470	69.92
421102	0.179	-17.485	69.92
421201	0.178	-17.475	69.94
421301	0.179	-17.495	69.96
421401	0.173	-17.495	69.96
421502	0.179	-17.490	70.00
421600	0.178	-17.515	70.02
421702	0.179	-17.525	70.02
421801	0.177	-17.525	70.04
421900	0.178	-17.550	70.06
422001	0.179	-17.550	70.06
422101	0.180	-17.565	70.10
422202	0.179	-17.585	70.12
422301	0.179	-17.585	70.12
422401	0.178	-17.600	70.14
422502	0.178	-17.620	70.18
422601	0.179	-17.605	70.18
422700	0.177	-17.630	70.20
422802	0.176	-17.640	70.22
422902	0.175	-17.640	70.22
423001	0.176	-17.660	70.24
423101	0.176	-17.655	70.24
423201	0.177	-17.670	70.28
423301	0.170	-17.680	70.30
423400	0.178	-17.675	70.30
423501	0.174	-17.695	70.32
423602	0.178	-17.700	70.34
423702	0.177	-17.695	70.34
423801	0.176	-17.720	70.38
423900	0.170	-17.710	70.40
424001	0.176	-17.725	70.40
424102	0.174	-17.750	70.42
424201	0.175	-17.745	70.44
424301	0.175	-17.760	70.48
424401	0.177	-17.770	70.48
424501	0.174	-17.765	70.50
424602	0.173	-17.785	70.52
424700	0.173	-17.790	70.52
424800	0.171	-17.790	70.56
424902	0.173	-17.805	70.58
425001	0.166	-17.810	70.58
425100	0.172	-17.825	70.60
425201	0.172	-17.840	70.62
425301	0.172	-17.830	70.62
425400	0.175	-17.845	70.66
425501	0.173	-17.850	70.68
425602	0.173	-17.845	70.68
425702	0.173	-17.855	70.70
425800	0.172	-17.845	70.70
425902	0.174	-17.845	70.72
426002	0.174	-17.855	70.76
426101	0.171	-17.835	70.76
426201	0.172	-17.815	70.78
426301	0.173	-17.800	70.80
426401	0.174	-17.435	70.80
426501	0.172	-17.120	70.84
426600	0.173	-17.020	70.86
426702	0.170	-16.945	70.86
426802	0.172	-16.885	70.88
426901	0.171	-16.875	70.88
427001	0.173	-16.880	70.90
427101	0.173	-16.885	70.94
427202	0.171	-16.850	70.96
427300	0.172	-16.860	70.96
427402	0.170	-16.880	70.98
427501	0.172	-16.895	71.00
427602	0.173	-16.945	71.00
427700	0.173	-17.005	71.04
427802	0.169	-17.060	71.06
427902	0.171	-17.120	71.06
428000	0.172	-17.175	71.08
428100	0.170	-17.225	71.10
428201	0.170	-17.285	71.10
428301	0.172	-17.315	71.14
428402	0.176	-17.350	71.14
428501	0.168	-17.405	71.16
428601	0.174	-17.425	71.18
428701	0.168	-17.465	71.18
428800	0.169	-17.500	71.22
428901	0.172	-17.525	71.24
429001	0.170	-17.565	71.24
429101	0.172	-17.595	71.26
429201	0.169	-17.610	71.28
429301	0.170	-17.650	71.28
429401	0.170	-17.670	71.32
429501	0.170	-17.700	71.34
429601	0.169	-17.735	71.34
429701	0.172	-17.745	71.36
429802	0.176	-17.770	71.38
429901	0.170	-17.805	71.38
430001	0.172	-17.810	71.42
430101	0.171	-17.840	71.42
430201	0.168	-17.860	71.44
430301	0.170	-17.875	71.46
430402	0.172	-17.900	71.46
430501	0.171	-17.915	71.50
430601	0.170	-17.935	71.52
430700	0.169	-17.960	71.52
430801	0.172	-17.975	71.54
430902	0.171	-17.995	71.56
431001	0.170	-18.020	71.56
431100	0.170	-18.035	71.60
431200	0.170	-18.065	71.62
431301	0.171	-18.070	71.62
431401	0.173	-18.085	71.64
431502	0.170	-18.115	71.66
431601	0.172	-18.125	71.66
431701	0.171	-18.150	71.70
431800	0.172	-18.175	71.72
431901	0.172	-18.180	71.72
432002	0.173	-18.190	71.74
432102	0.169	-18.225	71.74
432201	0.171	-18.230	71.78
432301	0.170	-18.255	71.80
432402	0.171	-18.275	71.80
432502	0.170	-18.280	71.82
432600	0.168	-18.310	71.84
432701	0.171	-18.315	71.84
432801	0.171	-18.330	71.88
432901	0.171	-18.360	71.90
433002	0.170	-18.370	71.90
433101	0.170	-18.380	71.92
433201	0.172	-18.410	71.94
433301	0.170	-18.410	71.94
433401	0.170	-18.425	71.98
433501	0.169	-18.435	72.00
433602	0.171	-18.440	72.02
433700	0.168	-18.470	72.02
433800	0.169	-18.470	72.04
433902	0.169	-18.485	72.04
434002	0.170	-18.510	72.08
434101	0.169	-18.510	72.10
434202	0.167	-18.530	72.10
434301	0.170	-18.545	72.12
434401	0.169	-18.545	72.16
434502	0.170	-18.565	72.16
434600	0.169	-18.575	72.18
434702	0.169	-18.580	72.20
434801	0.170	-18.605	72.20
434900	0.171	-18.605	72.22
435001	0.160	-18.620	72.26
435101	0.170	-18.650	72.26
435202	0.172	-18.655	72.28
435300	0.168	-18.670	72.30
435400	0.170	-18.680	72.30
435502	0.169	-18.690	72.32
435602	0.170	-18.705	72.36
435701	0.169	-18.720	72.36
435801	0.170	-18.715	72.38
435902	0.170	-18.740	72.40
436001	0.168	-18.740	72.40
436102	0.168	-18.750	72.44
436201	0.172	-18.775	72.46
436302	0.169	-18.775	72.46
436401	0.169	-18.795	72.48
436501	0.169	-18.820	72.50
436601	0.169	-18.820	72.50
436700	0.170	-18.850	72.54
436801	0.169	-18.855	72.56
436901	0.170	-18.860	72.56
437001	0.170	-18.890	72.58
437101	0.170	-18.885	72.60
437201	0.169	-18.895	72.60
437302	0.170	-18.920	72.64
437400	0.171	-18.915	72.66
437501	0.171	-18.935	72.66
437602	0.163	-18.960	72.68
437702	0.170	-18.955	72.68
437800	0.170	-18.985	72.72
437901	0.169	-18.990	72.74
438001	0.171	-18.985	72.74
438102	0.170	-19.010	72.76
438201	0.170	-19.010	72.78
438300	0.170	-19.030	72.78
438401	0.168	-19.045	72.82
438502	0.170	-19.050	72.84
438602	0.170	-19.060	72.84
438701	0.172	-19.085	72.86
438801	0.167	-19.085	72.88
438901	0.169	-19.110	72.88
439001	0.171	-19.110	72.92
439101	0.170	-19.120	72.94
439201	0.170	-19.150	72.94
439301	0.170	-19.150	72.96
439400	0.171	-19.160	72.98
439502	0.170	-19.180	72.98
439601	0.165	-19.185	73.02
439701	0.171	-19.205	73.02
439801	0.168	-19.210	73.04
439900	0.168	-19.215	73.06
440001	0.171	-19.235	73.06
440101	0.169	-19.245	73.10
440201	0.170	-19.245	73.12
440300	0.169	-19.260	73.12
440401	0.170	-19.260	73.14
440501	0.170	-19.270	73.16
440601	0.171	-19.285	73.16
440702	0.169	-19.285	73.20
440801	0.171	-19.295	73.22
440901	0.170	-19.320	73.22
441001	0.171	-19.315	73.24
441102	0.170	-19.335	73.26
441200	0.171	-19.345	73.26
441301	0.171	-19.355	73.30
441401	0.170	-19.375	73.32
441500	0.171	-19.380	73.32
441601	0.169	-19.385	73.34
441701	0.171	-19.410	73.34
441801	0.178	-19.415	73.38
441901	0.172	-19.425	73.40
442001	0.172	-19.440	73.40
442101	0.172	-19.440	73.42
442201	0.171	-19.465	73.44
442302	0.171	-19.480	73.44
442401	0.173	-19.475	73.48
442501	0.170	-19.500	73.50
442601	0.170	-19.495	73.50
442701	0.172	-19.510	73.52
442801	0.170	-19.530	73.54
442901	0.170	-19.530	73.54
443002	0.173	-19.550	73.58
443101	0.166	-19.565	73.60
443201	0.170	-19.565	73.60
443301	0.168	-19.585	73.62
443401	0.173	-19.590	73.64
443500	0.172	-19.595	73.64
443601	0.170	-19.605	73.68
443701	0.174	-19.600	73.70
443801	0.169	-19.600	73.70
443901	0.167	-19.620	73.72
444002	0.168	-19.625	73.76
444102	0.167	-19.620	73.76
444201	0.170	-19.630	73.78
444300	0.169	-19.630	73.78
444400	0.171	-19.645	73.80
444501	0.169	-19.645	73.82
444602	0.172	-19.650	73.86
444701	0.169	-19.670	73.86
444800	0.172	-19.665	73.88
444901	0.170	-19.675	73.90
445001	0.172	-19.685	73.90
445101	0.169	-19.680	73.92
445201	0.172	-19.680	73.96
445302	0.170	-19.690	73.96
445401	0.168	-19.680	73.98
445500	0.170	-19.690	74.00
445601	0.169	-19.690	74.00
445701	0.170	-19.695	74.04
445801	0.173	-19.705	74.06
445901	0.173	-19.710	74.06
446001	0.171	-19.720	74.08
446102	0.169	-19.740	74.10
446201	0.171	-19.750	74.10
446302	0.171	-19.755	74.14
446402	0.170	-19.780	74.16
446502	0.176	-19.780	74.16
446601	0.171	-19.805	74.18
446702	0.165	-19.810	74.20
446800	0.167	-19.805	74.20
446901	0.167	-19.820	74.24
447001	0.167	-19.810	74.26
447100	0.173	-19.815	74.26
447201	0.176	-19.790	74.28
447302	0.170	-19.750	74.28
447402	0.166	-19.730	74.32
447500	0.165	-19.735	74.34
447601	0.163	-19.735	74.34
447701	0.163	-19.760	74.36
447801	0.169	-19.775	74.38
447901	0.169	-19.790	74.38
448001	0.166	-19.825	74.42
448101	0.165	-19.835	74.44
448201	0.170	-19.855	74.44
448302	0.180	-19.875	74.46
448401	0.181	-19.885	74.48
448502	0.182	-19.910	74.48
448601	0.181	-19.930	74.52
448702	0.174	-19.945	74.54
448801	0.173	-19.975	74.54
448902	0.170	-19.990	74.56
449000	0.171	-19.995	74.58
449101	0.170	-20.015	74.58
449201	0.173	-20.030	74.62
449301	0.169	-20.055	74.62
449401	0.169	-20.075	74.64
449501	0.170	-20.080	74.66
449602	0.169	-20.095	74.66
449702	0.173	-20.115	74.70
449800	0.168	-20.120	74.72
449901	0.168	-20.140	74.72
450001	0.167	-20.145	74.74
450101	0.170	-20.150	74.76
450200	0.164	-20.170	74.76
450301	0.169	-20.160	74.80
450401	0.170	-20.165	74.82
450501	0.170	-20.175	74.82
450601	0.170	-20.170	74.84
450702	0.172	-20.185	74.86
450801	0.169	-20.200	74.86
450901	0.171	-20.210	74.90
451001	0.172	-20.220	74.92
451102	0.170	-20.235	74.92
451202	0.168	-20.225	74.94
451300	0.169	-20.235	74.94
451402	0.169	-20.245	74.98
451501	0.162	-20.245	75.00
451600	0.171	-20.255	75.00
451700	0.168	-20.245	75.02
451801	0.170	-20.260	75.04
451901	0.168	-20.265	75.04
452001	0.170	-20.265	75.08
452102	0.170	-20.275	75.10
452201	0.170	-20.280	75.10
452302	0.170	-20.285	75.12
452401	0.168	-20.305	75.14
452501	0.168	-20.285	75.14
452601	0.168	-20.295	75.18
452701	0.166	-20.315	75.20
452802	0.170	-20.320	75.20
452900	0.171	-20.330	75.22
453001	0.170	-20.345	75.22
453102	0.172	-20.350	75.26
453202	0.170	-20.365	75.28
453300	0.170	-20.375	75.28
453400	0.169	-20.385	75.30
453502	0.168	-20.405	75.32
453601	0.170	-20.410	75.32
453701	0.171	-20.430	75.36
453801	0.172	-20.450	75.38
453901	0.173	-20.455	75.38
454000	0.172	-20.480	75.40
454101	0.171	-20.500	75.42
454200	0.172	-20.505	75.42
454302	0.170	-20.525	75.46
454402	0.173	-20.545	75.48
454500	0.175	-20.555	75.50
454602	0.173	-20.575	75.50
454702	0.174	-20.595	75.52
454800	0.173	-20.605	75.52
454901	0.173	-20.630	75.56
455002	0.173	-20.635	75.58
455101	0.175	-20.655	75.58
455200	0.171	-20.670	75.60
455302	0.173	-20.685	75.64
455402	0.173	-20.695	75.66
455501	0.173	-20.715	75.66
455601	0.171	-20.715	75.68
455701	0.171	-20.745	75.70
455802	0.173	-20.755	75.70
455902	0.164	-20.765	75.74
456001	0.170	-20.785	75.76
456102	0.152	-20.795	75.76
456202	0.169	-20.805	75.78
456300	0.169	-20.825	75.78
456401	0.172	-20.830	75.80
456502	0.170	-20.855	75.84
456602	0.170	-20.870	75.84
456701	0.169	-20.875	75.86
456801	0.168	-20.900	75.88
456901	0.164	-20.905	75.88
457001	0.168	-20.915	75.92
457100	0.171	-20.940	75.94
457202	0.168	-20.940	75.94
457301	0.166	-20.960	75.96
457401	0.169	-20.970	75.98
457500	0.166	-20.970	75.98
457601	0.166	-20.995	76.02
457702	0.167	-21.000	76.04
457800	0.167	-21.000	76.04
457901	0.168	-21.020	76.06
458002	0.165	-21.025	76.08
458102	0.163	-21.030	76.08
458201	0.163	-21.045	76.12
458301	0.163	-21.035	76.14
458401	0.166	-21.045	76.14
458501	0.164	-21.040	76.16
458601	0.168	-21.035	76.18
458700	0.161	-21.045	76.18
458802	0.164	-21.050	76.22
458902	0.166	-21.035	76.22
459002	0.164	-21.045	76.24
459100	0.164	-21.040	76.26
459201	0.161	-21.050	76.26
459302	0.161	-21.075	76.30
459401	0.164	-21.085	76.32
459501	0.162	-21.105	76.32
459601	0.164	-21.120	76.34
459701	0.162	-21.125	76.36
459802	0.159	-21.145	76.36
459901	0.160	-21.165	76.40
460002	0.164	-21.170	76.42
460100	0.166	-21.200	76.42
460201	0.164	-21.205	76.44
460301	0.167	-21.225	76.46
460402	0.166	-21.250	76.46
460501	0.164	-21.250	76.50
460601	0.164	-21.270	76.50
460701	0.161	-21.285	76.52
460801	0.164	-21.290	76.54
460902	0.166	-21.305	76.54
461000	0.164	-21.310	76.58
461101	0.162	-21.320	76.60
461201	0.162	-21.345	76.60
461302	0.159	-21.355	76.62
461401	0.164	-21.365	76.64
461501	0.163	-21.385	76.64
461602	0.162	-21.395	76.68
461702	0.161	-21.415	76.70
461801	0.158	-21.430	76.70
461901	0.158	-21.440	76.72
462002	0.160	-21.465	76.74
462102	0.156	-21.475	76.74
462201	0.160	-21.485	76.78
462301	0.160	-21.505	76.80
462402	0.160	-21.530	76.80
462501	0.159	-21.540	76.82
462601	0.162	-21.555	76.82
462701	0.160	-21.560	76.86
462800	0.160	-21.585	76.88
462902	0.160	-21.605	76.88
463002	0.160	-21.610	76.90
463102	0.160	-21.635	76.92
463200	0.160	-21.645	76.92
463302	0.160	-21.650	76.96
463402	0.160	-21.680	76.98
463501	0.161	-21.690	76.98
463600	0.160	-21.700	77.00
463702	0.160	-21.725	77.02
463801	0.162	-21.725	77.02
463902	0.159	-21.740	77.06
464000	0.162	-21.760	77.08
464101	0.164	-21.750	77.08
464201	0.161	-21.780	77.10
464302	0.160	-21.790	77.12
464401	0.160	-21.795	77.12
464501	0.163	-21.815	77.16
464601	0.162	-21.820	77.18
464702	0.142	-21.835	77.18
464801	0.158	-21.855	77.20
464902	0.162	-21.865	77.24
465001	0.159	-21.880	77.24
465102	0.161	-21.895	77.26
465202	0.162	-21.905	77.28
465300	0.163	-21.925	77.28
465402	0.163	-21.930	77.30
465501	0.164	-21.940	77.30
465601	0.162	-21.960	77.34
465701	0.167	-21.955	77.36
465800	0.162	-21.970	77.36
465902	0.167	-21.990	77.38
466002	0.164	-21.995	77.40
466101	0.164	-22.005	77.40
466201	0.161	-22.020	77.44
466301	0.163	-22.020	77.46
466402	0.163	-22.015	77.48
466500	0.164	-22.020	77.48
466601	0.160	-22.020	77.52
466702	0.162	-22.030	77.54
466801	0.161	-22.030	77.54
466901	0.160	-22.045	77.56
467001	0.161	-22.060	77.58
467101	0.165	-22.055	77.58
467201	0.155	-22.065	77.62
467301	0.163	-22.075	77.64
467401	0.161	-22.065	77.64
467502	0.161	-22.080	77.66
467601	0.165	-22.095	77.68
467702	0.161	-22.090	77.68
467801	0.156	-22.105	77.72
467902	0.163	-22.100	77.74
468000	0.162	-22.100	77.74
468101	0.159	-22.115	77.76
468202	0.161	-22.105	77.76
468302	0.161	-22.105	77.80
468400	0.163	-22.095	77.82
468502	0.163	-22.085	77.82
468602	0.158	-22.085	77.84
468701	0.164	-22.080	77.86
468800	0.163	-22.075	77.86
468902	0.164	-22.085	77.90
469001	0.160	-22.085	77.92
469102	0.163	-22.080	77.92
469201	0.162	-22.095	77.94
469302	0.159	-22.095	77.96
469402	0.162	-22.105	77.96
469501	0.161	-22.125	78.00
469601	0.162	-22.135	78.02
469700	0.162	-22.160	78.02
469801	0.159	-22.175	78.04
469902	0.162	-22.190	78.06
470001	0.162	-22.215	78.06
470102	0.160	-22.235	78.10
470202	0.161	-22.240	78.10
470300	0.160	-22.270	78.12
470400	0.160	-22.275	78.14
470501	0.163	-22.295	78.14
470602	0.159	-22.310	78.18
470702	0.161	-22.315	78.20
470801	0.163	-22.335	78.20
470901	0.161	-22.355	78.22
471002	0.160	-22.350	78.24
471102	0.163	-22.370	78.24
471202	0.159	-22.380	78.28
471301	0.161	-22.385	78.30
471401	0.163	-22.395	78.30
471500	0.158	-22.400	78.32
471601	0.161	-22.410	78.34
471702	0.160	-22.420	78.34
471801	0.162	-22.410	78.38
471900	0.164	-22.425	78.40
472002	0.162	-22.430	78.40
472101	0.163	-22.420	78.42
472202	0.162	-22.430	78.46
472301	0.162	-22.430	78.46
472402	0.162	-22.430	78.48
472501	0.161	-22.450	78.50
472602	0.160	-22.455	78.50
472702	0.160	-22.465	78.52
472801	0.160	-22.480	78.56
472902	0.159	-22.490	78.56
473001	0.161	-22.515	78.58
473101	0.164	-22.530	78.60
473202	0.161	-22.530	78.60
473302	0.164	-22.555	78.62
473401	0.162	-22.560	78.62
473502	0.163	-22.575	78.66
473601	0.161	-22.605	78.68
473702	0.161	-22.610	78.68
473801	0.160	-22.635	78.70
473901	0.160	-22.650	78.72
474002	0.160	-22.660	78.72
474102	0.161	-22.680	78.76
474201	0.161	-22.690	78.78
474301	0.157	-22.705	78.78
474401	0.163	-22.725	78.80
474500	0.163	-22.730	78.84
474601	0.157	-22.745	78.84
474701	0.162	-22.770	78.86
474802	0.160	-22.780	78.86
474901	0.159	-22.800	78.88
475001	0.164	-22.810	78.90
475102	0.163	-22.825	78.90
475202	0.160	-22.845	78.94
475300	0.162	-22.860	78.96
475400	0.161	-22.870	78.98
475501	0.163	-22.895	78.98
475602	0.161	-22.905	79.00
475701	0.164	-22.920	79.04
475802	0.161	-22.940	79.04
475902	0.164	-22.945	79.06
476001	0.155	-22.965	79.08
476101	0.161	-22.980	79.08
476201	0.162	-22.980	79.12
476301	0.161	-23.005	79.14
476401	0.162	-23.020	79.14
476502	0.160	-23.025	79.16
476601	0.162	-23.045	79.16
476700	0.163	-23.045	79.18
476802	0.163	-23.060	79.22
476902	0.161	-23.085	79.22
477002	0.163	-23.090	79.24
477101	0.160	-23.110	79.26
477201	0.161	-23.125	79.26
477302	0.164	-23.125	79.28
477402	0.162	-23.145	79.32
477501	0.162	-23.160	79.32
477602	0.161	-23.155	79.34
477702	0.160	-23.175	79.36
477800	0.162	-23.185	79.36
477901	0.164	-23.200	79.40
478001	0.165	-23.220	79.42
478101	0.163	-23.230	79.42
478201	0.161	-23.240	79.44
478301	0.164	-23.260	79.46
478401	0.155	-23.265	79.46
478502	0.161	-23.280	79.50
478601	0.162	-23.290	79.52
478701	0.166	-23.300	79.52
478801	0.163	-23.325	79.54
478901	0.162	-23.325	79.56
479002	0.161	-23.340	79.56
479101	0.161	-23.360	79.60
479202	0.162	-23.370	79.62
479302	0.162	-23.375	79.62
479401	0.166	-23.385	79.64
479502	0.161	-23.395	79.66
479602	0.163	-23.415	79.66
479700	0.163	-23.420	79.70
479801	0.162	-23.430	79.70
479902	0.170	-23.455	79.72
480002	0.162	-23.460	79.74
480102	0.163	-23.475	79.74
480202	0.162	-23.500	79.78
480302	0.161	-23.505	79.80
480401	0.175	-23.520	79.80
480501	0.169	-23.530	79.82
480601	0.159	-23.530	79.84
480701	0.160	-23.550	79.84
480802	0.161	-23.560	79.88
480901	0.161	-23.565	79.90
481001	0.167	-23.585	79.90
481101	0.160	-23.585	79.92
481202	0.162	-23.595	79.94
481302	0.162	-23.620	79.94
481401	0.162	-23.615	79.98
481501	0.161	-23.630	80.00
481602	0.164	-23.645	80.00
481701	0.162	-23.645	80.02
481801	0.161	-23.665	80.02
481902	0.160	-23.675	80.06
482002	0.162	-23.675	80.08
482101	0.161	-23.690	80.08
482202	0.163	-23.700	80.10
482301	0.160	-23.710	80.12
482401	0.161	-23.720	80.12
482502	0.163	-23.725	80.16
482601	0.164	-23.750	80.18
482702	0.165	-23.760	80.18
482800	0.164	-23.760	80.20
482902	0.162	-23.780	80.22
483002	0.160	-23.785	80.22
483101	0.161	-23.790	80.26
483201	0.164	-23.810	80.28
483302	0.159	-23.815	80.28
483402	0.163	-23.815	80.30
483501	0.161	-23.840	80.30
483602	0.164	-23.845	80.34
483702	0.162	-23.850	80.36
483801	0.164	-23.865	80.36
483900	0.163	-23.870	80.38
484002	0.164	-23.880	80.40
484100	0.161	-23.890	80.40
484201	0.164	-23.885	80.44
484301	0.161	-23.905	80.46
484401	0.164	-23.910	80.48
484501	0.161	-23.925	80.48
484601	0.163	-23.945	80.50
484700	0.162	-23.950	80.54
484801	0.163	-23.970	80.54
484901	0.164	-23.985	80.56
485000	0.162	-23.990	80.58
485102	0.167	-24.010	80.58
485201	0.163	-24.020	80.60
485301	0.164	-24.030	80.64
485400	0.165	-24.050	80.64
485502	0.161	-24.060	80.66
485602	0.162	-24.060	80.68
485701	0.163	-24.085	80.68
485802	0.163	-24.085	80.72
485901	0.165	-24.105	80.72
486002	0.166	-24.120	80.74
486100	0.158	-24.120	80.76
486202	0.170	-24.135	80.76
486302	0.171	-24.150	80.78
486402	0.171	-24.145	80.82
486501	0.171	-24.160	80.82
486602	0.168	-24.165	80.84
486702	0.174	-24.170	80.86
486801	0.172	-24.180	80.86
486901	0.172	-24.175	80.88
487001	0.174	-24.185	80.92
487102	0.173	-24.190	80.92
487202	0.173	-24.180	80.94
487302	0.173	-24.185	80.96
487402	0.173	-24.185	80.96
487502	0.170	-24.175	81.00
487600	0.171	-24.185	81.02
487701	0.170	-24.175	81.02
487802	0.169	-24.180	81.04
487902	0.173	-24.200	81.06
488001	0.171	-24.190	81.06
488102	0.172	-24.195	81.10
488201	0.168	-24.195	81.12
488301	0.168	-24.175	81.12
488402	0.167	-24.165	81.14
488501	0.168	-24.160	81.16
488601	0.171	-24.150	81.16
488701	0.173	-24.145	81.20
488800	0.170	-24.135	81.22
488900	0.166	-24.135	81.22
489001	0.162	-24.145	81.24
489101	0.160	-24.145	81.24
489201	0.160	-24.160	81.26
489301	0.162	-24.165	81.30
489401	0.160	-24.170	81.30
489502	0.167	-24.180	81.32
489601	0.168	-24.175	81.34
489701	0.167	-24.175	81.34
489801	0.165	-24.180	81.38
489902	0.167	-24.165	81.40
490000	0.167	-24.175	81.40
490101	0.166	-24.190	81.42
490202	0.164	-24.195	81.44
490300	0.167	-24.195	81.44
490400	0.173	-24.195	81.48
490502	0.176	-24.180	81.50
490602	0.170	-24.175	81.50
490702	0.168	-24.170	81.52
490802	0.164	-24.145	81.54
490902	0.167	-24.135	81.54
491001	0.169	-24.095	81.58
491102	0.168	-24.015	81.58
491201	0.170	-23.985	81.60
491300	0.171	-23.955	81.62
491400	0.169	-23.955	81.62
491501	0.169	-23.950	81.66
491601	0.167	-23.940	81.68
491702	0.170	-23.960	81.68
491802	0.165	-23.985	81.70
491902	0.169	-24.005	81.72
492001	0.169	-24.035	81.72
492101	0.171	-24.045	81.76
492201	0.171	-24.065	81.78
492301	0.171	-24.095	81.78
492402	0.169	-24.100	81.80
492501	0.164	-24.100	81.82
492601	0.164	-24.095	81.82
492702	0.165	-24.095	81.86
492800	0.162	-24.105	81.88
492901	0.163	-24.110	81.88
493002	0.165	-24.105	81.90
493102	0.162	-24.120	81.90
493202	0.164	-24.115	81.94
493300	0.162	-24.105	81.96
493401	0.161	-24.105	81.98
493501	0.162	-24.110	81.98
493602	0.160	-24.130	82.00
493701	0.158	-24.155	82.04
493801	0.158	-24.165	82.04
493901	0.161	-24.195	82.06
494001	0.161	-24.210	82.08
494101	0.154	-24.225	82.08
494202	0.162	-24.255	82.10
494301	0.164	-24.270	82.14
494400	0.161	-24.300	82.14
494501	0.161	-24.325	82.16
494602	0.161	-24.345	82.18
494701	0.160	-24.375	82.18
494800	0.165	-24.395	82.20
494900	0.167	-24.415	82.24
495002	0.165	-24.440	82.24
495102	0.166	-24.465	82.26
495201	0.175	-24.480	82.28
495300	0.171	-24.510	82.28
495401	0.174	-24.520	82.32
495501	0.172	-24.550	82.32
495601	0.170	-24.565	82.34
495700	0.172	-24.575	82.36
495802	0.176	-24.595	82.36
495901	0.177	-24.620	82.38
496001	0.175	-24.635	82.42
496101	0.183	-24.660	82.42
496201	0.185	-24.675	82.44
496302	0.179	-24.695	82.46
496401	0.174	-24.715	82.48
496501	0.176	-24.735	82.48
496601	0.179	-24.760	82.52
496701	0.175	-24.790	82.54
496801	0.178	-24.800	82.54
496902	0.172	-24.825	82.56
497001	0.179	-24.840	82.56
497102	0.180	-24.855	82.60
497201	0.181	-24.885	82.62
497301	0.189	-24.900	82.62
497402	0.192	-24.910	82.64
497501	0.188	-24.945	82.66
497601	0.190	-24.945	82.66
497701	0.180	-24.975	82.70
497801	0.183	-24.990	82.72
497901	0.173	-25.000	82.72
498001	0.176	-25.030	82.74
498102	0.183	-25.045	82.76
498201	0.180	-25.055	82.76
498300	0.177	-25.080	82.80
498400	0.174	-25.095	82.82
498501	0.176	-25.100	82.82
498601	0.184	-25.125	82.84
498702	0.176	-25.135	82.84
498802	0.179	-25.145	82.88
498901	0.198	-25.170	82.90
499002	0.187	-25.170	82.90
499101	0.189	-25.185	82.92
499200	0.183	-25.200	82.94
499302	0.187	-25.205	82.94
499402	0.186	-25.215	82.98
499501	0.185	-25.225	83.00
499600	0.184	-25.220	83.00
499702	0.189	-25.230	83.02
499801	0.196	-25.230	83.04
499901	0.202	-25.235	83.04
500000	0.202	-25.245	83.08
500101	0.205	-25.250	83.10
500201	0.198	-25.255	83.10
500302	0.205	-25.275	83.12
500401	0.212	-25.275	83.14
500501	0.212	-25.295	83.14
500601	0.205	-25.295	83.18
500702	0.211	-25.305	83.18
500801	0.214	-25.330	83.20
500900	0.210	-25.340	83.22
501001	0.203	-25.355	83.22
501101	0.207	-25.370	83.26
501201	0.199	-25.385	83.28
501301	0.202	-25.400	83.28
501401	0.202	-25.415	83.30
501502	0.217	-25.425	83.32
501602	0.206	-25.450	83.32
501702	0.206	-25.465	83.36
501801	0.210	-25.470	83.38
501901	0.206	-25.495	83.38
502000	0.203	-25.500	83.40
502101	0.208	-25.525	83.42
502202	0.201	-25.550	83.42
502302	0.197	-25.560	83.46
502401	0.220	-25.575	83.48
502502	0.213	-25.600	83.48
502602	0.231	-25.605	83.50
502701	0.219	-25.635	83.50
502802	0.216	-25.645	83.54
502900	0.205	-25.660	83.56
503001	0.197	-25.685	83.56
503102	0.207	-25.695	83.58
503201	0.202	-25.705	83.60
503302	0.198	-25.730	83.60
503401	0.205	-25.740	83.64
503502	0.206	-25.760	83.66
503601	0.186	-25.775	83.68
503702	0.205	-25.785	83.68
503802	0.185	-25.800	83.70
503901	0.175	-25.820	83.74
504000	0.170	-25.820	83.74
504100	0.180	-25.840	83.76
504202	0.176	-25.850	83.76
504301	0.185	-25.870	83.78
504400	0.191	-25.885	83.80
504501	0.169	-25.895	83.80
504601	0.176	-25.905	83.84
504702	0.176	-25.935	83.86
504802	0.184	-25.935	83.86
504900	0.198	-25.955	83.88
505001	0.176	-25.965	83.92
505101	0.185	-25.975	83.92
505202	0.171	-25.995	83.94
505301	0.168	-26.000	83.96
505401	0.160	-26.015	83.98
505501	0.159	-26.035	83.98
505601	0.162	-26.040	84.02
505701	0.163	-26.050	84.04
505802	0.167	-26.060	84.04
505901	0.173	-26.065	84.06
506001	0.164	-26.080	84.08
506101	0.173	-26.085	84.08
506201	0.170	-26.090	84.12
506300	0.165	-26.110	84.12
506402	0.166	-26.115	84.14
506501	0.171	-26.120	84.16
506602	0.177	-26.140	84.16
506701	0.196	-26.135	84.20
506801	0.182	-26.155	84.22
506902	0.181	-26.165	84.22
507001	0.180	-26.165	84.24
507102	0.184	-26.185	84.26
507202	0.181	-26.200	84.26
507301	0.177	-26.200	84.30
507401	0.182	-26.215	84.32
507501	0.176	-26.205	84.32
507602	0.173	-26.210	84.34
507701	0.175	-26.225	84.36
507800	0.163	-26.235	84.36
507902	0.178	-26.250	84.40
508001	0.176	-26.270	84.42
508102	0.187	-26.280	84.42
508201	0.195	-26.305	84.44
508301	0.180	-26.315	84.44
508402	0.190	-26.320	84.48
508501	0.186	-26.345	84.50
508602	0.188	-26.355	84.50
508702	0.173	-26.375	84.52
508802	0.174	-26.395	84.54
508901	0.181	-26.400	84.54
509002	0.183	-26.415	84.58
509102	0.176	-26.440	84.60
509201	0.172	-26.450	84.60
509301	0.181	-26.470	84.62
509402	0.175	-26.485	84.64
509501	0.170	-26.500	84.64
509601	0.171	-26.520	84.68
509702	0.178	-26.535	84.70
509801	0.178	-26.545	84.70
509901	0.163	-26.570	84.72
510000	0.153	-26.580	84.74
510102	0.161	-26.605	84.74
510201	0.168	-26.615	84.78
510301	0.232	-26.630	84.78
510401	0.199	-26.655	84.80
510501	0.191	-26.665	84.82
510601	0.192	-26.680	84.82
510701	0.196	-26.705	84.86
510801	0.204	-26.710	84.88
510901	0.223	-26.725	84.88
511001	0.228	-26.745	84.90
511101	0.265	-26.750	84.92
511201	0.253	-26.775	84.92
511301	0.243	-26.785	84.96
511402	0.289	-26.795	84.98
511501	0.227	-26.820	84.98
511601	0.205	-26.830	85.00
511701	0.188	-26.840	85.02
511802	0.192	-26.860	85.02
511901	0.190	-26.860	85.06
512002	0.209	-26.870	85.08
512102	0.171	-26.895	85.08
512201	0.172	-26.905	85.10
512302	0.180	-26.915	85.10
512401	0.174	-26.930	85.14
512502	0.178	-26.935	85.16
512601	0.167	-26.960	85.16
512701	0.174	-26.970	85.18
512802	0.170	-26.975	85.20
512901	0.174	-27.000	85.20
513001	0.172	-27.005	85.24
513101	0.185	-27.025	85.26
513200	0.192	-27.035	85.26
513302	0.197	-27.040	85.28
513402	0.217	-27.055	85.30
513501	0.221	-27.075	85.30
513601	0.227	-27.085	85.34
513701	0.255	-27.100	85.36
513801	0.299	-27.110	85.36
513901	0.296	-27.120	85.38
514002	0.255	-27.135	85.38
514102	0.262	-27.145	85.42
514200	0.296	-27.155	85.44
514302	0.257	-27.170	85.44
514401	0.266	-27.180	85.46
514501	0.218	-27.185	85.48
514602	0.207	-27.190	85.48
514702	0.246	-27.185	85.52
514802	0.304	-27.185	85.54
514900	0.330	-27.170	85.54
515002	0.275	-27.150	85.56
515102	0.250	-27.145	85.58
515201	0.268	-27.115	85.58
515302	0.262	-27.085	85.62
515401	0.258	-27.080	85.64
515502	0.248	-27.060	85.64
515601	0.268	-27.040	85.66
515701	0.273	-27.035	85.68
515802	0.269	-27.020	85.68
515901	0.259	-27.030	85.72
516001	0.305	-27.030	85.74
516101	0.272	-27.035	85.74
516201	0.297	-27.050	85.76
516300	0.276	-27.050	85.80
516402	0.263	-27.060	85.80
516502	0.260	-27.085	85.82
516601	0.262	-27.080	85.84
516702	0.264	-27.100	85.84
516801	0.263	-27.115	85.86
516901	0.259	-27.120	85.90
517002	0.279	-27.145	85.90
517101	0.276	-27.165	85.92
517201	0.278	-27.175	85.94
517302	0.283	-27.200	85.96
517402	0.275	-27.215	85.96
517501	0.268	-27.235	86.00
517601	0.279	-27.265	86.02
517702	0.299	-27.275	86.02
517801	0.270	-27.305	86.04
517901	0.297	-27.325	86.04
518001	0.231	0.000	86.08
518101	0.165	0.000	86.10
518201	0.162	0.000	86.10
518302	0.155	0.000	86.12
518402	0.154	0.000	86.14
518502	0.164	0.000	86.14
518601	0.164	0.000	86.18
518701	0.148	0.000	86.20
518802	0.160	0.000	86.20
518901	0.161	0.000	86.22
519002	0.155	0.000	86.24
519102	0.153	0.000	86.24
519202	0.150	0.000	86.28
519300	0.156	0.000	86.30
519402	0.153	0.000	86.30
519502	0.155	0.000	86.32
519602	0.155	0.000	86.34
519700	0.159	0.000	86.34
519802	0.156	0.000	86.38
519902	0.161	0.000	86.38
520002	0.159	0.000	86.40
520100	0.167	0.000	86.42
520202	0.175	0.000	86.42
520302	0.161	0.000	86.46
520400	0.184	0.000	86.48
520502	0.188	0.000	86.48
520601	0.178	0.000	86.50
520701	0.180	0.000	86.52
520801	0.186	0.000	86.52
520901	0.201	0.000	86.56
521002	0.222	0.000	86.58
521100	0.206	0.000	86.58
521202	0.215	0.000	86.60
521302	0.226	0.000	86.62
521401	0.243	0.000	86.62
521501	0.324	0.000	86.66
521602	0.316	0.000	86.66
521701	0.334	0.000	86.68
521801	0.270	0.000	86.70
521901	0.266	0.000	86.70
522001	0.318	0.000	86.74
522101	0.240	0.000	86.76
522202	0.287	0.000	86.76
522301	0.276	0.000	86.78
522402	0.339	0.000	86.80
522500	0.337	0.000	86.80
522601	0.354	0.000	86.84
522702	0.321	0.000	86.86
522801	0.307	0.000	86.86
522901	0.319	0.000	86.88
523001	0.292	0.000	86.90
523102	0.334	0.000	86.90
523202	0.327	0.000	86.94
523302	0.328	0.000	86.96
523401	0.326	0.000	86.96
523502	0.327	0.000	86.98
523602	0.297	0.000	86.98
523702	0.291	0.000	87.02
523802	0.330	0.000	87.04
523901	0.281	0.000	87.04
524002	0.291	0.000	87.06
524102	0.269	0.000	87.08
524202	0.270	0.000	87.08
524301	0.296	0.000	87.12
524401	0.311	0.000	87.14
524500	0.320	0.000	87.14
524601	0.304	0.000	87.16
524702	0.308	0.000	87.18
524801	0.317	0.000	87.18
524901	0.301	0.000	87.22
525002	0.318	0.000	87.24
525100	0.345	0.000	87.24
525202	0.346	0.000	87.26
525301	0.327	0.000	87.28
525401	0.356	0.000	87.28
525501	0.366	0.000	87.32
525601	0.345	0.000	87.32
525701	0.300	0.000	87.34
525802	0.320	0.000	87.36
525901	0.207	0.000	87.36
526001	0.251	0.000	87.40
526102	0.243	0.000	87.42
526200	0.282	0.000	87.42
526302	0.347	0.000	87.44
526402	0.288	0.000	87.46
526502	0.280	0.000	87.46
526601	0.307	0.000	87.50
526702	0.259	0.000	87.52
526802	0.273	0.000	87.52
526901	0.265	0.000	87.54
527002	0.275	0.000	87.54
527101	0.235	0.000	87.54
527201	0.255	0.000	87.54
527300	0.301	0.000	87.54
527401	0.309	0.000	87.54
527501	0.295	0.000	87.54
527602	0.290	0.000	87.54
527703	0.277	0.000	87.54
527802	0.271	0.000	87.54
527902	0.268	0.000	87.54
528002	0.262	0.000	87.54
528101	0.262	0.000	87.54
528202	0.269	0.000	87.54
