Time(ms)	Voltage(V)	Force(N)	Distance(mm)
100	0.816	0.000	0.00
201	0.822	0.000	0.00
301	0.823	0.000	0.00
401	0.828	0.000	0.00
501	0.824	0.000	0.00
601	0.824	0.000	0.00
700	0.823	0.000	0.00
800	0.829	0.000	0.00
902	0.841	-0.020	0.04
1002	0.858	-0.010	0.12
1102	0.864	-0.015	0.20
1201	0.885	-0.025	0.26
1302	0.903	-0.025	0.34
1401	0.919	-0.040	0.42
1500	0.923	-0.040	0.50
1601	0.947	-0.040	0.58
1702	0.965	-0.045	0.66
1800	0.987	-0.050	0.72
1900	0.989	-0.065	0.78
2001	1.006	-0.060	0.86
2101	1.031	-0.070	0.92
2200	1.036	-0.070	1.00
2300	1.056	-0.075	1.08
2402	1.073	-0.080	1.16
2502	1.091	-0.090	1.24
2600	1.114	-0.095	1.32
2701	1.135	-0.095	1.38
2801	1.157	-0.105	1.46
2902	1.163	-0.110	1.54
3001	1.188	-0.110	1.62
3101	1.224	-0.110	1.70
3201	1.225	-0.125	1.76
3300	1.237	-0.125	1.84
3400	1.252	-0.130	1.92
3502	1.260	-0.130	2.00
3602	1.326	-0.140	2.08
3701	1.307	-0.140	2.14
3801	1.303	-0.150	2.20
3905	1.313	-0.160	2.28
4002	1.324	-0.160	2.36
4101	1.339	-0.155	2.42
4200	1.358	-0.165	2.50
4302	1.346	-0.170	2.58
4402	1.342	-0.175	2.66
4500	1.346	-0.180	2.74
4601	1.376	-0.185	2.80
4702	1.371	-0.195	2.88
4802	1.365	-0.185	2.96
4900	1.421	-0.190	3.04
5002	1.416	-0.205	3.12
5101	1.410	-0.200	3.16
5201	1.414	-0.215	3.26
5300	1.400	-0.210	3.32
5402	1.402	-0.225	3.42
5502	1.427	-0.225	3.50
5600	1.430	-0.230	3.54
5700	1.434	-0.230	3.64
5802	1.455	-0.235	3.70
5902	1.455	-0.240	3.80
6000	1.472	-0.240	3.86
6101	1.461	-0.250	3.92
6202	1.480	-0.260	4.00
6302	1.485	-0.260	4.08
6401	1.472	-0.265	4.16
6501	1.489	-0.265	4.24
6601	1.501	-0.270	4.30
6701	1.512	-0.280	4.38
6802	1.524	-0.280	4.46
6900	1.527	-0.285	4.54
7000	1.549	-0.295	4.62
7102	1.539	-0.300	4.68
7202	1.536	-0.300	4.76
7300	1.531	-0.300	4.82
7401	1.532	-0.310	4.92
7502	1.550	-0.310	4.96
7601	1.569	-0.320	5.06
7702	1.573	-0.320	5.12
7802	1.577	-0.330	5.20
7900	1.545	-0.330	5.28
8001	1.570	-0.340	5.34
8101	1.551	-0.340	5.42
8201	1.573	-0.345	5.50
8300	1.567	-0.350	5.58
8401	1.560	-0.350	5.66
8501	1.563	-0.365	5.74
8602	1.587	-0.360	5.80
8701	1.575	-0.365	5.88
8801	1.583	-0.365	5.96
8902	1.590	-0.375	6.04
9000	1.591	-0.380	6.12
9101	1.605	-0.385	6.18
9201	1.602	-0.385	6.26
9302	1.615	-0.395	6.34
9401	1.627	-0.400	6.42
9502	1.628	-0.400	6.50
9600	1.613	-0.410	6.56
9701	1.623	-0.405	6.62
9802	1.584	-0.415	6.70
9901	1.598	-0.415	6.78
10000	1.605	-0.425	6.84
10100	1.659	-0.430	6.92
10202	1.601	-0.440	7.00
10302	1.613	-0.435	7.08
10402	1.564	-0.445	7.16
10501	1.586	-0.445	7.22
10600	1.569	-0.455	7.30
10700	1.551	-0.460	7.38
10802	1.584	-0.460	7.46
10901	1.558	-0.465	7.54
11000	1.559	-0.465	7.60
11100	1.561	-0.475	7.68
11202	1.531	-0.475	7.76
11302	1.571	-0.480	7.84
11401	1.587	-0.485	7.92
11500	1.563	-0.490	8.00
11600	1.548	-0.500	8.06
11700	1.555	-0.500	8.14
11801	1.561	-0.500	8.22
11901	1.555	-0.505	8.28
12002	1.554	-0.515	8.34
12100	1.542	-0.515	8.44
12200	1.529	-0.525	8.50
12301	1.559	-0.525	8.58
12401	1.536	-0.530	8.66
12500	1.519	-0.535	8.72
12601	1.508	-0.545	8.80
12701	1.508	-0.545	8.88
12802	1.516	-0.555	8.96
12901	1.541	-0.560	9.04
13000	1.513	-0.560	9.10
13101	1.507	-0.565	9.18
13201	1.503	-0.565	9.26
13300	1.502	-0.570	9.34
13402	1.505	-0.570	9.42
13502	1.495	-0.585	9.48
13602	1.486	-0.580	9.56
13701	1.485	-0.590	9.64
13801	1.487	-0.600	9.72
13901	1.497	-0.595	9.80
14001	1.479	-0.600	9.84
14102	1.493	-0.610	9.94
14202	1.484	-0.610	10.00
14302	1.471	-0.615	10.10
14400	1.483	-0.620	10.14
14500	1.502	-0.625	10.22
14602	1.484	-0.635	10.30
14700	1.476	-0.635	10.38
14800	1.473	-0.635	10.46
14900	1.465	-0.645	10.54
15002	1.462	-0.650	10.60
15100	1.470	-0.655	10.68
15201	1.473	-0.655	10.76
15300	1.481	-0.665	10.84
15401	1.484	-0.660	10.92
15500	1.480	-0.675	10.98
15601	1.491	-0.675	11.06
15701	1.478	-0.680	11.12
15802	1.498	-0.680	11.22
15900	1.514	-0.685	11.26
16001	1.522	-0.695	11.36
16102	1.505	-0.700	11.42
16200	1.496	-0.705	11.50
16300	1.508	-0.700	11.60
16401	1.524	-0.715	11.64
16501	1.524	-0.715	11.72
16601	1.512	-0.725	11.80
16700	1.517	-0.725	11.88
16801	1.509	-0.730	11.96
16901	1.501	-0.735	12.02
17001	1.496	-0.740	12.10
17101	1.525	-0.745	12.18
17201	1.519	-0.745	12.26
17302	1.492	-0.750	12.34
17400	1.498	-0.755	12.42
17501	1.503	-0.760	12.48
17602	1.498	-0.760	12.56
17701	1.499	-0.775	12.64
17802	1.495	-0.770	12.72
17902	1.509	-0.780	12.76
18000	1.505	-0.785	12.86
18100	1.514	-0.785	12.92
18202	1.507	-0.790	13.00
18302	1.507	-0.800	13.08
18401	1.508	-0.805	13.14
18500	1.511	-0.805	13.22
18602	1.497	-0.810	13.30
18700	1.490	-0.815	13.38
18800	1.501	-0.820	13.46
18902	1.518	-0.825	13.52
19002	1.538	-0.835	13.60
19101	1.528	-0.835	13.68
19200	1.540	-0.845	13.76
19302	1.549	-0.840	13.84
19401	1.528	-0.850	13.90
19501	1.522	-0.850	13.98
19600	1.521	-0.860	14.04
19701	1.531	-0.865	14.14
19801	1.536	-0.865	14.18
19901	1.541	-0.880	14.26
20001	1.547	-0.880	14.36
20101	1.550	-0.885	14.42
20200	1.536	-0.885	14.52
20301	1.542	-0.895	14.56
20402	1.548	-0.895	14.64
20502	1.557	-0.900	14.72
20601	1.570	-0.905	14.80
20700	1.556	-0.905	14.88
20801	1.540	-0.925	14.96
20901	1.535	-0.925	15.02
21000	1.540	-0.925	15.10
21102	1.545	-0.930	15.18
21202	1.528	-0.940	15.26
21302	1.523	-0.940	15.34
21400	1.526	-0.945	15.40
21502	1.520	-0.945	15.48
21601	1.531	-0.955	15.54
21700	1.537	-0.965	15.64
21802	1.536	-0.965	15.72
21901	1.539	-0.975	15.78
22002	1.539	-0.975	15.86
22100	1.526	-0.980	15.92
22201	1.534	-0.985	16.02
22301	1.541	-0.995	16.06
22401	1.544	-0.995	16.14
22500	1.556	-0.995	16.22
22601	1.549	-1.000	16.30
22701	1.534	-1.005	16.38
22802	1.531	-1.015	16.44
22900	1.527	-1.015	16.52
23001	1.532	-1.025	16.60
23102	1.542	-1.030	16.68
23202	1.544	-1.040	16.76
23301	1.543	-1.030	16.84
23402	1.550	-1.050	16.90
23502	1.552	-1.045	16.98
23602	1.554	-1.055	17.06
23702	1.560	-1.055	17.14
23800	1.551	-1.060	17.18
23902	1.551	-1.070	17.28
24002	1.555	-1.070	17.34
24100	1.546	-1.080	17.44
24201	1.547	-1.080	17.50
24301	1.558	-1.095	17.56
24401	1.554	-1.090	17.66
24501	1.561	-1.100	17.72
24601	1.568	-1.100	17.80
24702	1.548	-1.115	17.88
24800	1.555	-1.115	17.94
24901	1.560	-1.120	18.02
25000	1.567	-1.125	18.10
25101	1.568	-1.125	18.18
25200	1.581	-1.140	18.26
25300	1.577	-1.140	18.32
25402	1.565	-1.145	18.40
25502	1.567	-1.145	18.48
25600	1.569	-1.155	18.56
25701	1.565	-1.160	18.64
25801	1.561	-1.165	18.70
25902	1.569	-1.165	18.78
26000	1.567	-1.165	18.84
26102	1.566	-1.175	18.94
26202	1.568	-1.180	18.98
26301	1.575	-1.190	19.06
26401	1.560	-1.190	19.14
26502	1.564	-1.200	19.22
26602	1.551	-1.205	19.30
26700	1.555	-1.210	19.38
26800	1.562	-1.210	19.44
26900	1.559	-1.215	19.52
27001	1.567	-1.230	19.60
27102	1.551	-1.230	19.68
27201	1.551	-1.235	19.76
27301	1.559	-1.235	19.82
27400	1.564	-1.245	19.90
27500	1.561	-1.250	19.98
27601	1.563	-1.255	20.06
27701	1.561	-1.255	20.14
27801	1.550	-1.265	20.20
27901	1.550	-1.270	20.28
28001	1.551	-1.275	20.34
28101	1.555	-1.280	20.44
28201	1.550	-1.285	20.48
28302	1.535	-1.290	20.58
28401	1.533	-1.295	20.64
28500	1.537	-1.305	20.72
28601	1.537	-1.300	20.80
28702	1.528	-1.315	20.86
28800	1.530	-1.320	20.94
28901	1.527	-1.320	21.02
29001	1.544	-1.325	21.10
29100	1.545	-1.330	21.18
29201	1.555	-1.340	21.24
29301	1.553	-1.340	21.32
29402	1.545	-1.340	21.40
29500	1.540	-1.345	21.48
29602	1.546	-1.355	21.56
29702	1.546	-1.360	21.64
29801	1.542	-1.370	21.70
29900	1.532	-1.370	21.78
30000	1.536	-1.375	21.86
30102	1.526	-1.380	21.94
30200	1.546	-1.385	21.98
30300	1.564	-1.395	22.08
30400	1.570	-1.395	22.14
30502	1.569	-1.405	22.22
30600	1.581	-1.405	22.30
30701	1.561	-1.415	22.36
30801	1.551	-1.415	22.44
30901	1.545	-1.425	22.52
31001	1.569	-1.430	22.60
31101	1.582	-1.440	22.68
31201	1.581	-1.435	22.74
31301	1.598	-1.445	22.82
31400	1.599	-1.455	22.90
31501	1.633	-1.455	22.98
31601	1.607	-1.465	23.06
31701	1.598	-1.465	23.12
31800	1.580	-1.470	23.20
31901	1.553	-1.475	23.26
32001	1.560	-1.485	23.36
32102	1.561	-1.480	23.44
32200	1.568	-1.495	23.48
32301	1.566	-1.495	23.56
32402	1.568	-1.505	23.64
32500	1.569	-1.510	23.72
32600	1.564	-1.510	23.78
32702	1.565	-1.515	23.86
32802	1.567	-1.525	23.94
32900	1.581	-1.530	24.02
33000	1.583	-1.530	24.10
33100	1.577	-1.540	24.18
33202	1.570	-1.540	24.24
33300	1.564	-1.550	24.32
33401	1.565	-1.555	24.40
33502	1.559	-1.565	24.48
33602	1.578	-1.565	24.56
33701	1.570	-1.575	24.62
33801	1.572	-1.580	24.70
33902	1.574	-1.585	24.76
34000	1.571	-1.595	24.86
34100	1.582	-1.590	24.90
34202	1.577	-1.600	25.00
34301	1.576	-1.600	25.06
34400	1.573	-1.610	25.14
34500	1.560	-1.615	25.22
34601	1.575	-1.620	25.28
34702	1.577	-1.620	25.36
34801	1.579	-1.635	25.44
34900	1.569	-1.645	25.52
35000	1.572	-1.640	25.60
35102	1.575	-1.645	25.66
35200	1.571	-1.650	25.74
35302	1.581	-1.660	25.82
35402	1.563	-1.665	25.90
35502	1.571	-1.670	25.98
35600	1.564	-1.675	26.06
35701	1.578	-1.680	26.12
35802	1.579	-1.685	26.20
35901	1.593	-1.695	26.28
36001	1.578	-1.700	26.36
36102	1.561	-1.705	26.40
36201	1.569	-1.710	26.50
36300	1.587	-1.710	26.58
36400	1.597	-1.720	26.66
36501	1.587	-1.720	26.72
36601	1.584	-1.735	26.78
36701	1.581	-1.735	26.86
36801	1.590	-1.745	26.94
36901	1.584	-1.750	27.02
37001	1.579	-1.750	27.10
37101	1.575	-1.755	27.16
37201	1.589	-1.760	27.24
37301	1.588	-1.770	27.32
37401	1.599	-1.775	27.40
37501	1.597	-1.785	27.48
37601	1.593	-1.785	27.54
37702	1.592	-1.795	27.62
37800	1.596	-1.795	27.70
37901	1.597	-1.805	27.78
38000	1.591	-1.810	27.86
38101	1.587	-1.815	27.92
38201	1.589	-1.820	28.00
38300	1.588	-1.820	28.08
38402	1.598	-1.830	28.16
38501	1.590	-1.835	28.20
38601	1.595	-1.845	28.28
38701	1.580	-1.845	28.36
38802	1.572	-1.855	28.44
38902	1.583	-1.860	28.54
39001	1.580	-1.865	28.60
39102	1.571	-1.865	28.66
39201	1.574	-1.875	28.74
39302	1.579	-1.880	28.82
39400	1.579	-1.885	28.90
39501	1.582	-1.895	28.98
39602	1.594	-1.900	29.04
39702	1.591	-1.905	29.12
39801	1.593	-1.905	29.20
39900	1.606	-1.915	29.28
40002	1.606	-1.915	29.32
40101	1.605	-1.930	29.42
40200	1.608	-1.935	29.50
40301	1.625	-1.935	29.56
40401	1.610	-1.940	29.66
40502	1.605	-1.950	29.70
40601	1.605	-1.955	29.80
40701	1.604	-1.960	29.86
40802	1.593	-1.965	29.94
40900	1.589	-1.965	30.02
41000	1.598	-1.975	30.08
41102	1.576	-1.980	30.16
41201	1.580	-1.990	30.24
41302	1.584	-1.995	30.32
41401	1.589	-2.000	30.40
41501	1.592	-2.010	30.46
41601	1.579	-2.015	30.54
41701	1.599	-2.015	30.62
41800	1.594	-2.020	30.70
41904	1.598	-2.030	30.78
42002	1.609	-2.030	30.82
42101	1.599	-2.045	30.92
42202	1.590	-2.050	31.00
42301	1.596	-2.055	31.08
42402	1.615	-2.060	31.14
42501	1.593	-2.065	31.20
42602	1.589	-2.065	31.28
42702	1.578	-2.080	31.36
42801	1.595	-2.090	31.44
42900	1.604	-2.085	31.52
43002	1.605	-2.095	31.58
43100	1.604	-2.100	31.66
43201	1.603	-2.110	31.74
43301	1.609	-2.110	31.82
43402	1.606	-2.125	31.90
43500	1.618	-2.125	31.96
43600	1.613	-2.125	32.04
43700	1.607	-2.145	32.12
43802	1.613	-2.145	32.20
43901	1.609	-2.150	32.28
44000	1.628	-2.150	32.34
44100	1.615	-2.165	32.42
44201	1.613	-2.170	32.50
44302	1.608	-2.175	32.58
44400	1.620	-2.175	32.66
44501	1.624	-2.190	32.70
44601	1.630	-2.195	32.80
44701	1.622	-2.195	32.86
44802	1.616	-2.200	32.94
44901	1.618	-2.210	33.00
45001	1.614	-2.220	33.08
45102	1.606	-2.220	33.16
45201	1.589	-2.230	33.24
45301	1.594	-2.235	33.32
45401	1.592	-2.250	33.40
45501	1.585	-2.245	33.46
45600	1.585	-2.250	33.54
45701	1.593	-2.260	33.62
45802	1.584	-2.270	33.70
45902	1.585	-2.270	33.78
46001	1.587	-2.275	33.84
46100	1.587	-2.285	33.92
46202	1.582	-2.295	34.00
46301	1.581	-2.300	34.08
46401	1.591	-2.300	34.16
46501	1.590	-2.310	34.22
46601	1.598	-2.310	34.30
46701	1.586	-2.325	34.36
46801	1.598	-2.325	34.46
46902	1.599	-2.330	34.54
47001	1.603	-2.335	34.58
47101	1.599	-2.345	34.66
47202	1.597	-2.355	34.74
47302	1.597	-2.355	34.82
47400	1.595	-2.365	34.88
47501	1.588	-2.370	34.96
47602	1.587	-2.380	35.04
47702	1.586	-2.385	35.12
47801	1.582	-2.390	35.20
47900	1.581	-2.400	35.28
48001	1.575	-2.400	35.34
48101	1.572	-2.415	35.42
48200	1.580	-2.410	35.50
48301	1.591	-2.420	35.58
48401	1.589	-2.430	35.62
48501	1.587	-2.440	35.72
48600	1.590	-2.440	35.78
48701	1.604	-2.450	35.86
48801	1.594	-2.450	35.96
48900	1.595	-2.465	36.00
49001	1.598	-2.465	36.10
49102	1.607	-2.475	36.16
49201	1.603	-2.480	36.24
49301	1.591	-2.485	36.32
49401	1.606	-2.495	36.38
49501	1.618	-2.500	36.46
49602	1.614	-2.505	36.54
49701	1.606	-2.505	36.62
49801	1.621	-2.525	36.70
49900	1.608	-2.530	36.76
50001	1.598	-2.535	36.84
50102	1.606	-2.535	36.92
50202	1.614	-2.545	37.00
50301	1.614	-2.550	37.08
50401	1.625	-2.560	37.12
50502	1.608	-2.560	37.22
50600	1.612	-2.565	37.28
50701	1.639	-2.585	37.38
50800	1.624	-2.585	37.42
50902	1.625	-2.595	37.50
51001	1.633	-2.600	37.58
51101	1.634	-2.610	37.66
51201	1.639	-2.615	37.74
51302	1.638	-2.620	37.82
51400	1.633	-2.625	37.88
51502	1.619	-2.635	37.96
51602	1.620	-2.635	38.04
51701	1.616	-2.645	38.12
51800	1.607	-2.650	38.20
51900	1.600	-2.655	38.26
52001	1.603	-2.670	38.34
52101	1.603	-2.670	38.42
52200	1.604	-2.680	38.50
52300	1.606	-2.685	38.58
52401	1.598	-2.695	38.64
52502	1.599	-2.700	38.72
52601	1.606	-2.705	38.78
52702	1.609	-2.710	38.88
52802	1.605	-2.720	38.92
52902	1.614	-2.730	39.02
53001	1.605	-2.730	39.08
53101	1.617	-2.740	39.16
53202	1.620	-2.740	39.24
53301	1.636	-2.760	39.30
53401	1.626	-2.760	39.38
53502	1.620	-2.770	39.46
53601	1.616	-2.770	39.54
53701	1.606	-2.780	39.62
53801	1.614	-2.790	39.70
53902	1.600	-2.800	39.76
54002	1.604	-2.800	39.84
54100	1.613	-2.810	39.92
54201	1.602	-2.820	40.00
54302	1.610	-2.825	40.08
54402	1.613	-2.835	40.14
54500	1.622	-2.835	40.22
54600	1.605	-2.845	40.30
54701	1.602	-2.850	40.38
54802	1.596	-2.860	40.42
54902	1.607	-2.860	40.52
55000	1.598	-2.865	40.58
55101	1.611	-2.885	40.66
55201	1.612	-2.885	40.74
55301	1.617	-2.895	40.80
55401	1.610	-2.900	40.88
55501	1.606	-2.910	40.96
55601	1.613	-2.915	41.04
55701	1.627	-2.920	41.12
55801	1.604	-2.925	41.18
55901	1.603	-2.935	41.26
56001	1.606	-2.950	41.34
56100	1.598	-2.950	41.42
56200	1.595	-2.960	41.50
56302	1.587	-2.970	41.56
56401	1.584	-2.975	41.64
56500	1.591	-2.980	41.70
56601	1.598	-2.990	41.80
56701	1.585	-2.990	41.88
56802	1.590	-3.005	41.92
56901	1.601	-3.010	42.02
57000	1.609	-3.015	42.08
57101	1.590	-3.025	42.18
57202	1.592	-3.030	42.24
57300	1.586	-3.040	42.30
57401	1.572	-3.045	42.38
57502	1.576	-3.055	42.46
57601	1.580	-3.055	42.54
57700	1.590	-3.070	42.62
57801	1.595	-3.080	42.68
57901	1.587	-3.080	42.76
58002	1.578	-3.090	42.84
58100	1.591	-3.095	42.92
58201	1.581	-3.105	43.00
58301	1.581	-3.110	43.06
58401	1.580	-3.120	43.14
58500	1.574	-3.125	43.20
58601	1.582	-3.140	43.30
58701	1.579	-3.140	43.34
58800	1.567	-3.145	43.44
58901	1.562	-3.155	43.52
59001	1.573	-3.165	43.58
59100	1.574	-3.175	43.68
59200	1.569	-3.180	43.72
59300	1.581	-3.190	43.80
59401	1.586	-3.190	43.88
59500	1.583	-3.205	43.96
59601	1.563	-3.210	44.04
59701	1.558	-3.220	44.10
59801	1.569	-3.225	44.18
59901	1.577	-3.240	44.26
60000	1.581	-3.245	44.34
60100	1.593	-3.250	44.42
60202	1.587	-3.265	44.50
60301	1.592	-3.265	44.56
60402	1.595	-3.275	44.64
60500	1.587	-3.280	44.72
60601	1.584	-3.290	44.80
60702	1.579	-3.300	44.84
60801	1.572	-3.310	44.94
60901	1.582	-3.310	45.00
61002	1.588	-3.325	45.08
61101	1.582	-3.330	45.16
61200	1.577	-3.335	45.22
61300	1.576	-3.350	45.30
61401	1.566	-3.350	45.38
61500	1.568	-3.365	45.46
61600	1.600	-3.365	45.54
61702	1.579	-3.375	45.60
61802	1.582	-3.385	45.68
61900	1.579	-3.395	45.76
62001	1.575	-3.400	45.84
62100	1.576	-3.410	45.92
62202	1.578	-3.415	45.98
62300	1.593	-3.425	46.06
62401	1.596	-3.435	46.14
62502	1.582	-3.445	46.22
62601	1.574	-3.455	46.30
62700	1.586	-3.460	46.34
62801	1.578	-3.470	46.44
62902	1.578	-3.475	46.50
63001	1.605	-3.490	46.60
63101	1.591	-3.490	46.64
63201	1.580	-3.500	46.72
63301	1.596	-3.505	46.80
63400	1.594	-3.515	46.88
63501	1.580	-3.525	46.96
63601	1.587	-3.530	47.04
63701	1.594	-3.535	47.10
63801	1.588	-3.550	47.18
63902	1.586	-3.560	47.26
64001	1.579	-3.570	47.34
64100	1.572	-3.580	47.42
64201	1.571	-3.585	47.48
64301	1.565	-3.595	47.56
64401	1.571	-3.600	47.64
64500	1.579	-3.610	47.72
64600	1.570	-3.615	47.80
64701	1.556	-3.625	47.86
64800	1.569	-3.640	47.94
64901	1.572	-3.645	48.00
65001	1.571	-3.655	48.10
65102	1.562	-3.665	48.14
65200	1.564	-3.675	48.22
65301	1.565	-3.680	48.30
65402	1.566	-3.695	48.38
65502	1.575	-3.695	48.46
65602	1.589	-3.715	48.52
65702	1.600	-3.720	48.60
65801	1.585	-3.730	48.68
65901	1.589	-3.735	48.76
66001	1.597	-3.745	48.84
66100	1.608	-3.755	48.92
66200	1.617	-3.765	48.98
66301	1.614	-3.780	49.06
66401	1.616	-3.775	49.14
66500	1.599	-3.790	49.22
66600	1.596	-3.805	49.26
66702	1.588	-3.810	49.36
66800	1.576	-3.815	49.42
66902	1.578	-3.830	49.52
67000	1.575	-3.835	49.58
67102	1.583	-3.845	49.64
67202	1.576	-3.850	49.74
67300	1.572	-3.860	49.80
67400	1.572	-3.875	49.88
67502	1.565	-3.880	49.98
67601	1.577	-3.895	50.02
67701	1.570	-3.900	50.10
67801	1.576	-3.910	50.18
67901	1.568	-3.920	50.26
68000	1.568	-3.925	50.34
68100	1.577	-3.940	50.40
68201	1.561	-3.935	50.48
68301	1.564	-3.955	50.56
68400	1.557	-3.960	50.64
68502	1.560	-3.975	50.72
68602	1.561	-3.980	50.78
68700	1.552	-3.995	50.86
68800	1.554	-4.005	50.94
68901	1.560	-4.015	51.02
69001	1.568	-4.025	51.10
69100	1.555	-4.030	51.14
69201	1.568	-4.045	51.24
69300	1.565	-4.050	51.30
69401	1.545	-4.060	51.40
69501	1.560	-4.075	51.46
69602	1.562	-4.080	51.52
69701	1.548	-4.090	51.60
69800	1.569	-4.100	51.68
69900	1.564	-4.110	51.76
70002	1.558	-4.125	51.84
70102	1.558	-4.125	51.90
70201	1.551	-4.140	51.98
70301	1.557	-4.145	52.06
70402	1.552	-4.160	52.14
70502	1.557	-4.170	52.22
70600	1.549	-4.170	52.28
70700	1.554	-4.180	52.36
70801	1.553	-4.180	52.44
70902	1.545	-4.200	52.52
71000	1.538	-4.205	52.60
71100	1.547	-4.215	52.66
71201	1.556	-4.225	52.74
71302	1.557	-4.240	52.80
71401	1.553	-4.250	52.90
71501	1.556	-4.255	52.94
71602	1.544	-4.265	53.02
71700	1.541	-4.275	53.10
71801	1.547	-4.295	53.18
71902	1.552	-4.295	53.26
72002	1.551	-4.310	53.32
72101	1.555	-4.315	53.40
72201	1.559	-4.330	53.48
72302	1.559	-4.340	53.56
72401	1.565	-4.350	53.64
72500	1.566	-4.360	53.72
72602	1.569	-4.375	53.78
72701	1.563	-4.385	53.86
72800	1.550	-4.390	53.94
72900	1.561	-4.405	54.02
73000	1.556	-4.405	54.10
73101	1.550	-4.410	54.16
73201	1.549	-4.420	54.24
73301	1.548	-4.440	54.30
73402	1.546	-4.445	54.40
73502	1.559	-4.465	54.48
73602	1.555	-4.470	54.54
73701	1.576	-4.480	54.62
73802	1.568	-4.495	54.68
73902	1.574	-4.505	54.76
74001	1.570	-4.515	54.82
74101	1.559	-4.525	54.90
74202	1.557	-4.535	54.98
74302	1.550	-4.535	55.06
74401	1.562	-4.555	55.14
74500	1.558	-4.565	55.20
74602	1.551	-4.580	55.28
74700	1.549	-4.590	55.36
74801	1.558	-4.600	55.44
74901	1.556	-4.615	55.52
75002	1.559	-4.625	55.60
75100	1.545	-4.640	55.66
75202	1.548	-4.645	55.74
75302	1.555	-4.665	55.82
75402	1.534	-4.670	55.90
75500	1.531	-4.680	55.94
75601	1.529	-4.695	56.02
75701	1.540	-4.705	56.10
75800	1.537	-4.715	56.18
75900	1.527	-4.725	56.26
76000	1.522	-4.740	56.32
76102	1.537	-4.745	56.40
76200	1.517	-4.765	56.48
76300	1.525	-4.775	56.56
76401	1.535	-4.790	56.64
76501	1.516	-4.800	56.70
76601	1.526	-4.815	56.78
76702	1.526	-4.820	56.86
76801	1.533	-4.835	56.94
76902	1.523	-4.845	57.02
77002	1.517	-4.860	57.08
77101	1.515	-4.880	57.16
77201	1.501	-4.880	57.22
77302	1.506	-4.895	57.30
77401	1.513	-4.905	57.36
77501	1.507	-4.920	57.44
77601	1.512	-4.930	57.52
77702	1.500	-4.945	57.60
77801	1.512	-4.950	57.68
77901	1.513	-4.970	57.74
78002	1.516	-4.980	57.82
78101	1.513	-4.990	57.90
78200	1.515	-5.005	57.98
78301	1.506	-4.980	58.06
78402	1.503	-5.010	58.14
78502	1.500	-5.025	58.20
78601	1.500	-5.045	58.28
78700	1.498	-5.055	58.36
78802	1.501	-5.075	58.44
78901	1.494	-5.080	58.52
79001	1.499	-5.090	58.58
79102	1.499	-5.100	58.66
79202	1.492	-5.115	58.72
79300	1.502	-5.125	58.82
79401	1.504	-5.140	58.86
79502	1.496	-5.150	58.96
79602	1.487	-5.160	59.02
79700	1.489	-5.165	59.10
79801	1.499	-5.180	59.18
79902	1.506	-5.195	59.24
80002	1.496	-5.205	59.32
80100	1.497	-5.220	59.40
80201	1.489	-5.235	59.48
80301	1.494	-5.245	59.56
80400	1.491	-5.260	59.62
80500	1.492	-5.270	59.70
80601	1.489	-5.290	59.78
80702	1.487	-5.300	59.86
80800	1.503	-5.310	59.94
80901	1.514	-5.325	60.02
81001	1.494	-5.340	60.08
81102	1.503	-5.350	60.16
81201	1.497	-5.370	60.24
81301	1.498	-5.375	60.32
81401	1.485	-5.390	60.36
81502	1.480	-5.405	60.46
81600	1.484	-5.415	60.54
81701	1.479	-5.435	60.62
81801	1.487	-5.435	60.70
81902	1.482	-5.420	60.74
82000	1.474	-5.425	60.82
82101	1.474	-5.445	60.90
82200	1.472	-5.460	60.98
82302	1.469	-5.480	61.06
82400	1.484	-5.500	61.12
82502	1.478	-5.510	61.20
82602	1.480	-5.520	61.28
82701	1.477	-5.530	61.36
82800	1.487	-5.540	61.44
82900	1.483	-5.550	61.50
83001	1.479	-5.555	61.58
83101	1.480	-5.570	61.66
83201	1.480	-5.595	61.74
83302	1.483	-5.605	61.82
83402	1.496	-5.625	61.88
83500	1.487	-5.635	61.96
83600	1.488	-5.650	62.04
83701	1.479	-5.665	62.12
83801	1.484	-5.675	62.20
83902	1.484	-5.690	62.24
84001	1.497	-5.700	62.32
84101	1.498	-5.730	62.40
84202	1.505	-5.735	62.50
84300	1.504	-5.745	62.56
84400	1.500	-5.760	62.62
84501	1.502	-5.775	62.70
84601	1.502	-5.790	62.78
84701	1.501	-5.800	62.86
84800	1.502	-5.815	62.94
84900	1.495	-5.825	63.00
85002	1.488	-5.815	63.08
85100	1.492	-5.820	63.16
85200	1.497	-5.830	63.24
85302	1.502	-5.850	63.32
85402	1.503	-5.865	63.38
85501	1.491	-5.875	63.46
85601	1.498	-5.885	63.54
85701	1.495	-5.895	63.62
85801	1.497	-5.905	63.66
85900	1.502	-5.925	63.76
86001	1.507	-5.935	63.82
86102	1.516	-5.950	63.90
86200	1.517	-5.965	64.00
86301	1.512	-5.985	64.04
86401	1.510	-5.995	64.12
86501	1.518	-6.010	64.20
86602	1.514	-6.020	64.28
86701	1.503	-6.040	64.36
86801	1.510	-6.055	64.42
86902	1.510	-6.065	64.50
87001	1.509	-6.075	64.58
87102	1.496	-6.090	64.66
87202	1.518	-6.105	64.74
87302	1.493	-6.120	64.82
87401	1.512	-6.135	64.88
87502	1.521	-6.150	64.96
87602	1.529	-6.170	65.04
87700	1.523	-6.185	65.12
87800	1.519	-6.195	65.16
87902	1.503	-6.210	65.26
88001	1.574	-6.225	65.32
88101	1.523	-6.240	65.40
88200	1.512	-6.255	65.48
88302	1.538	-6.270	65.54
88401	1.524	-6.280	65.62
88501	1.512	-6.300	65.70
88600	1.514	-6.310	65.78
88702	1.525	-6.330	65.86
88801	1.507	-6.345	65.92
88900	1.532	-6.360	66.00
89000	1.539	-6.380	66.08
89102	1.525	-6.390	66.16
89201	1.521	-6.400	66.24
89301	1.548	-6.420	66.30
89400	1.535	-6.435	66.38
89501	1.531	-6.405	66.46
89602	1.527	-6.435	66.54
89701	1.518	-6.455	66.62
89801	1.527	-6.480	66.66
89901	1.529	-6.495	66.76
90001	1.512	-6.515	66.82
90101	1.529	-6.525	66.92
90200	1.506	-6.540	66.96
90300	1.521	-6.565	67.04
90402	1.519	-6.575	67.12
90502	1.528	-6.595	67.20
90600	1.519	-6.610	67.28
90701	1.530	-6.630	67.36
90801	1.528	-6.640	67.42
90901	1.518	-6.655	67.50
91000	1.517	-6.655	67.58
91101	1.552	-6.675	67.66
91202	1.546	-6.700	67.74
91301	1.524	-6.720	67.80
91401	1.520	-6.740	67.88
91502	1.541	-6.755	67.96
91602	1.540	-6.775	68.04
91701	1.524	-6.790	68.12
91802	1.537	-6.805	68.18
91901	1.547	-6.815	68.26
92000	1.535	-6.840	68.32
92101	1.501	-6.860	68.42
92202	1.543	-6.875	68.46
92301	1.553	-6.890	68.56
92402	1.534	-6.895	68.62
92502	1.521	-6.910	68.70
92600	1.540	-6.935	68.78
92700	1.566	-6.955	68.84
92801	1.563	-6.970	68.92
92901	1.555	-7.000	69.00
93001	1.545	-7.010	69.08
93100	1.539	-7.030	69.16
93202	1.528	-7.045	69.24
93301	1.530	-7.065	69.30
93401	1.539	-7.080	69.38
93500	1.519	-7.100	69.46
93601	1.512	-7.120	69.54
93701	1.531	-7.130	69.58
93801	1.520	-7.160	69.68
93901	1.538	-7.170	69.74
94001	1.518	-7.190	69.84
94101	1.508	-7.205	69.92
94201	1.506	-7.225	69.96
94301	1.500	-7.240	70.04
94401	1.494	-7.260	70.12
94500	1.501	-7.280	70.20
94600	1.486	-7.295	70.28
94700	1.483	-7.320	70.34
94802	1.478	-7.330	70.42
94901	1.466	-7.335	70.50
95001	1.452	-7.355	70.58
95101	1.465	-7.380	70.66
95202	1.470	-7.400	70.72
95301	1.461	-7.420	70.80
95400	1.473	-7.440	70.86
95501	1.477	-7.455	70.96
95602	1.471	-7.475	71.00
95701	1.462	-7.490	71.10
95801	1.465	-7.510	71.16
95901	1.469	-7.525	71.24
96001	1.472	-7.545	71.32
96101	1.458	-7.560	71.38
96202	1.460	-7.575	71.46
96301	1.461	-7.595	71.54
96401	1.462	-7.625	71.62
96500	1.462	-7.640	71.70
96602	1.453	-7.655	71.78
96702	1.459	-7.670	71.84
96800	1.466	-7.690	71.92
96901	1.468	-7.710	72.00
97002	1.454	-7.730	72.08
97102	1.457	-7.745	72.16
97201	1.462	-7.765	72.22
97302	1.458	-7.785	72.30
97401	1.449	-7.805	72.38
97500	1.452	-7.820	72.46
97601	1.450	-7.840	72.50
97701	1.448	-7.860	72.60
97801	1.452	-7.880	72.66
97901	1.456	-7.900	72.74
98000	1.446	-7.920	72.82
98101	1.445	-7.935	72.88
98201	1.452	-7.960	72.96
98302	1.455	-7.970	73.04
98401	1.447	-7.995	73.12
98501	1.451	-8.015	73.20
98602	1.471	-8.035	73.26
98702	1.463	-8.055	73.34
98801	1.457	-8.075	73.42
98900	1.466	-8.095	73.50
99001	1.460	-8.115	73.58
99100	1.448	-8.130	73.64
99201	1.439	-8.150	73.72
99300	1.436	-8.170	73.80
99402	1.454	-8.190	73.88
99500	1.445	-8.210	73.96
99600	1.452	-8.225	74.04
99701	1.456	-8.245	74.10
99802	1.436	-8.260	74.18
99902	1.447	-8.285	74.26
100000	1.452	-8.300	74.32
100100	1.437	-8.315	74.38
100201	1.433	-8.335	74.46
100302	1.429	-8.355	74.54
100401	1.431	-8.375	74.62
100501	1.436	-8.395	74.70
100602	1.440	-8.415	74.76
100701	1.427	-8.415	74.84
100801	1.432	-8.445	74.92
100901	1.432	-8.460	75.00
101002	1.431	-8.485	75.08
101101	1.424	-8.500	75.14
101201	1.423	-8.525	75.22
101302	1.422	-8.535	75.30
101402	1.414	-8.555	75.38
101502	1.412	-8.570	75.46
101601	1.416	-8.585	75.52
101701	1.415	-8.605	75.60
101802	1.431	-8.615	75.66
101902	1.434	-8.635	75.76
102001	1.421	-8.650	75.84
102100	1.426	-8.675	75.88
102201	1.421	-8.695	75.98
102301	1.424	-8.700	76.04
102400	1.435	-8.715	76.14
102501	1.402	-8.730	76.18
102601	1.431	-8.760	76.26
102702	1.422	-8.765	76.34
102800	1.413	-8.775	76.42
102901	1.419	-8.780	76.50
103001	1.452	-8.815	76.58
103100	1.409	-8.840	76.64
103201	1.403	-8.865	76.72
103301	1.417	-8.870	76.80
103401	1.440	-8.890	76.88
103500	1.458	-8.930	76.96
103601	1.468	-8.950	77.02
103702	1.415	-8.965	77.10
103802	1.409	-8.955	77.16
103900	1.395	-9.000	77.26
104001	1.407	-9.025	77.30
104100	1.409	-9.055	77.40
104201	1.396	-9.050	77.48
104300	1.413	-9.070	77.54
104401	1.396	-9.095	77.64
104501	1.421	-9.125	77.68
104600	1.393	-9.125	77.76
104700	1.448	-9.145	77.84
104800	1.412	-9.185	77.92
104901	1.411	-9.195	78.00
105002	1.419	-9.195	78.06
105100	1.412	-9.215	78.14
105202	1.424	-9.250	78.22
105301	1.409	-9.265	78.30
105400	1.407	-9.275	78.38
105500	1.404	-9.300	78.46
105601	1.407	-9.325	78.52
105702	1.406	-9.335	78.60
105802	1.400	-9.335	78.68
105901	1.420	-9.355	78.76
106001	1.454	-9.375	78.80
106101	1.405	-9.410	78.90
106201	1.412	-9.415	78.98
106302	1.420	-9.440	79.04
106401	1.457	-9.460	79.12
106500	1.420	-9.475	79.18
106600	1.419	-9.490	79.26
106701	1.417	-9.485	79.34
106800	1.470	-9.500	79.42
106900	1.498	-9.505	79.50
107001	1.433	-9.515	79.56
107102	1.433	-9.525	79.64
107202	1.443	-9.535	79.72
107301	1.439	-9.550	79.80
107402	1.423	-9.535	79.88
107501	1.420	-9.560	79.94
107600	1.419	-9.595	80.02
107700	1.422	-9.625	80.10
107801	1.453	-9.645	80.18
107901	1.526	-9.660	80.26
108001	1.458	-9.690	80.34
108100	1.468	-9.715	80.40
108201	1.454	-9.735	80.48
108301	1.438	-9.750	80.56
108400	1.456	-9.780	80.60
108501	1.440	-9.810	80.68
108601	1.439	-9.830	80.76
108700	1.454	-9.855	80.84
108800	1.485	-9.880	80.92
108901	1.544	-9.890	81.00
109001	1.576	-9.910	81.06
109102	1.536	-9.925	81.14
109200	1.525	-9.940	81.22
109302	1.549	-9.945	81.30
109402	1.575	-9.900	81.38
109501	1.533	-9.855	81.44
109602	1.468	-9.440	81.52
109701	1.448	-9.245	81.60
109801	1.452	-9.250	81.68
109900	1.459	-9.280	81.76
110000	1.460	-9.270	81.82
110101	1.454	-9.195	81.90
110202	1.456	-9.135	81.98
110300	1.456	-9.040	82.06
110401	1.458	-8.945	82.14
110502	1.462	-8.965	82.20
110602	1.463	-8.970	82.28
110702	1.473	-8.990	82.34
110801	1.511	-8.935	82.42
110901	1.503	-8.800	82.48
111001	1.489	-8.750	82.56
111100	1.484	-8.730	82.64
111202	1.483	-8.735	82.72
111302	1.486	-8.710	82.80
111401	1.491	-8.690	82.88
111501	1.487	-8.685	82.94
111600	1.489	-8.715	83.02
111702	1.494	-8.760	83.10
111800	1.477	-8.780	83.18
111900	1.466	-8.805	83.26
112002	1.467	-8.760	83.32
112102	1.504	-8.665	83.40
112202	1.507	-8.440	83.48
112301	1.502	-8.360	83.56
112400	1.506	-8.400	83.60
112501	1.505	-8.470	83.70
112600	1.504	-8.505	83.78
112700	1.504	-8.505	83.84
112802	1.527	-8.420	83.94
112902	1.525	-8.265	83.98
113000	1.519	-8.200	84.08
113100	1.511	-8.170	84.14
113201	1.528	-8.150	84.22
113301	1.535	-8.110	84.30
113400	1.557	-8.020	84.36
113501	1.563	-7.890	84.44
113601	1.561	-7.785	84.52
113702	1.568	-7.765	84.60
113800	1.599	-7.715	84.68
113901	1.586	-7.630	84.74
114001	1.585	-7.610	84.82
114102	1.628	-7.535	84.90
114201	1.673	-7.345	84.98
114301	1.775	-7.110	85.06
114401	1.922	-6.855	85.10
114500	10.547	-6.535	85.20
114601	10.547	-6.025	85.26
114701	10.547	-5.330	85.36
114802	10.547	-0.300	85.42
114902	10.547	0.035	85.48
115001	10.547	0.050	85.56
115101	10.547	0.045	85.64
115201	10.547	0.050	85.72
115300	10.547	0.045	85.80
115401	10.547	0.045	85.86
115501	10.547	0.045	85.94
115602	10.547	0.050	86.02
115700	10.547	0.040	86.10
115802	10.547	0.045	86.18
115902	10.547	0.045	86.24
116002	10.547	0.045	86.32
116100	10.547	0.050	86.40
116202	10.547	0.045	86.48
116301	2.387	0.045	86.56
116400	2.300	0.045	86.62
116501	2.253	0.050	86.70
116601	2.235	0.045	86.76
116701	1.964	0.040	86.86
116800	1.957	0.045	86.90
116901	1.958	0.045	86.98
117001	1.942	0.050	87.06
117102	1.919	0.045	87.14
117202	2.003	0.045	87.22
117301	2.023	0.045	87.28
117401	2.076	0.050	87.36
117501	1.966	0.045	87.44
117600	1.961	0.040	87.52
117701	1.941	0.050	87.60
117801	1.945	0.045	87.68
117902	1.967	0.040	87.74
118000	1.910	0.045	87.82
118100	1.904	0.045	87.90
118201	1.895	0.045	87.98
118301	1.877	0.050	88.06
118401	1.866	0.040	88.12
118501	1.848	0.050	88.20
118602	1.841	0.045	88.26
118700	1.849	0.045	88.36
118800	1.964	0.050	88.40
118902	2.042	0.050	88.50
119001	1.910	0.050	88.56
119101	0.781	0.045	88.64
119202	2.010	0.050	88.72
119301	1.898	0.045	88.78
119402	1.877	0.050	88.86
119501	1.902	0.045	88.94
119601	1.977	0.050	89.02
119701	10.547	0.045	89.10
119800	1.824	0.045	89.16
119901	1.915	0.040	89.24
120000	1.904	0.045	89.32
120102	1.935	0.045	89.40
120200	1.916	0.040	89.48
120301	1.979	0.050	89.56
120402	2.064	0.045	89.62
